ファイル名：	C:\TAData\菊池_貝良塚\Sn単体_2024_09_26.tad								
									
[ファイル情報]									
ファイル名：	Sn単体_2024_09_26.tad								
試料名：	Sn単体（菊池貝良塚）								
ロット番号：	1								
収集日：	2024/9/26								
収集時間：	14:41:10(+0900)								
機種名：	DTG-60								
機体番号：	C30564500399TK								
雰囲気ガス：	アルゴン								
ガス流量：	50[ml/min]								
セル：	アルミニウム								
試料量：	20.732[mg]								
試料分子量：	0								
									
									
[測定プログラム]									
[データ取込条件]									
サンプリング間隔[ sec ] ：	1								
収集開始条件：	測定開始と同時に開始								
収集終了条件：	測定終了と同時に終了								
									
									
[温度プログラム]									
加熱速度	ホールド温度	ホールド時間							
[ﾟC/min ]	[  ﾟC   ]	[  min  ]							
20	500	10							
-20	30	0							
									
									
[データ]									
Time	Temp	DTA	TGA						
sec	ﾟC	uV	mg						
0	24.02	4.5	20.73						
1	24.08	4.5	20.73						
2	24.08	4.5	20.73						
3	24.08	4.51	20.73						
4	24.1	4.51	20.73						
5	24.12	4.53	20.73						
6	24.2	4.56	20.73						
7	24.26	4.61	20.73						
8	24.41	4.69	20.73						
9	24.53	4.82	20.73						
10	24.64	5	20.73						
11	24.77	5.23	20.73						
12	24.86	5.51	20.73						
13	25.01	5.83	20.73						
14	25.1	6.18	20.73						
15	25.26	6.57	20.73						
16	25.38	6.98	20.73						
17	25.49	7.4	20.73						
18	25.61	7.83	20.73						
19	25.68	8.27	20.73						
20	25.81	8.7	20.73						
21	25.9	9.13	20.73						
22	26.05	9.56	20.73						
23	26.19	9.98	20.73						
24	26.3	10.4	20.73						
25	26.44	10.81	20.73						
26	26.54	11.23	20.73						
27	26.7	11.65	20.73						
28	26.8	12.07	20.73						
29	26.99	12.49	20.73						
30	27.15	12.91	20.73						
31	27.29	13.34	20.73						
32	27.44	13.78	20.73						
33	27.56	14.22	20.73						
34	27.74	14.66	20.73						
35	27.86	15.11	20.73						
36	28.06	15.56	20.73						
37	28.25	16.01	20.73						
38	28.39	16.46	20.73						
39	28.56	16.92	20.73						
40	28.69	17.38	20.73						
41	28.87	17.83	20.73						
42	29.02	18.29	20.73						
43	29.22	18.74	20.73						
44	29.43	19.2	20.73						
45	29.57	19.65	20.73						
46	29.76	20.11	20.73						
47	29.91	20.57	20.73						
48	30.1	21.02	20.73						
49	30.27	21.48	20.73						
50	30.47	21.94	20.73						
51	30.69	22.4	20.73						
52	30.85	22.86	20.73						
53	31.04	23.31	20.73						
54	31.21	23.77	20.73						
55	31.41	24.23	20.73						
56	31.59	24.7	20.73						
57	31.81	25.16	20.73						
58	32.04	25.62	20.73						
59	32.21	26.08	20.73						
60	32.43	26.54	20.73						
61	32.61	27.01	20.73						
62	32.82	27.47	20.73						
63	33.02	27.94	20.73						
64	33.25	28.41	20.73						
65	33.49	28.87	20.73						
66	33.68	29.34	20.73						
67	33.91	29.81	20.73						
68	34.1	30.28	20.73						
69	34.32	30.75	20.73						
70	34.53	31.23	20.73						
71	34.76	31.69	20.73						
72	35.03	32.16	20.73						
73	35.22	32.63	20.73						
74	35.46	33.1	20.73						
75	35.67	33.57	20.73						
76	35.89	34.04	20.73						
77	36.11	34.51	20.73						
78	36.36	34.97	20.73						
79	36.64	35.44	20.73						
80	36.84	35.91	20.73						
81	37.08	36.37	20.73						
82	37.3	36.84	20.73						
83	37.53	37.3	20.73						
84	37.79	37.77	20.73						
85	38.04	38.23	20.73						
86	38.32	38.7	20.73						
87	38.54	39.16	20.73						
88	38.8	39.63	20.73						
89	39.03	40.09	20.73						
90	39.27	40.56	20.73						
91	39.52	41.03	20.73						
92	39.78	41.49	20.73						
93	40.07	41.95	20.73						
94	40.3	42.42	20.73						
95	40.56	42.88	20.73						
96	40.8	43.35	20.73						
97	41.05	43.81	20.73						
98	41.31	44.28	20.73						
99	41.57	44.74	20.73						
100	41.87	45.21	20.73						
101	42.11	45.67	20.73						
102	42.37	46.14	20.73						
103	42.63	46.61	20.73						
104	42.88	47.07	20.73						
105	43.15	47.54	20.73						
106	43.41	48.01	20.73						
107	43.72	48.47	20.73						
108	43.98	48.94	20.73						
109	44.24	49.4	20.73						
110	44.51	49.87	20.73						
111	44.76	50.33	20.73						
112	45.05	50.8	20.73						
113	45.31	51.26	20.73						
114	45.63	51.72	20.73						
115	45.89	52.19	20.73						
116	46.16	52.65	20.73						
117	46.44	53.11	20.73						
118	46.69	53.57	20.73						
119	46.99	54.03	20.73						
120	47.27	54.49	20.73						
121	47.59	54.95	20.73						
122	47.87	55.41	20.73						
123	48.14	55.87	20.73						
124	48.43	56.33	20.73						
125	48.69	56.78	20.73						
126	48.99	57.24	20.73						
127	49.27	57.7	20.73						
128	49.6	58.15	20.73						
129	49.88	58.61	20.73						
130	50.16	59.06	20.73						
131	50.45	59.52	20.73						
132	50.72	59.97	20.73						
133	51.01	60.42	20.73						
134	51.3	60.87	20.73						
135	51.63	61.32	20.73						
136	51.92	61.77	20.73						
137	52.19	62.21	20.73						
138	52.5	62.66	20.73						
139	52.76	63.11	20.73						
140	53.07	63.55	20.73						
141	53.36	63.99	20.73						
142	53.69	64.43	20.73						
143	53.99	64.87	20.73						
144	54.28	65.31	20.73						
145	54.59	65.76	20.73						
146	54.85	66.2	20.73						
147	55.17	66.64	20.73						
148	55.47	67.08	20.73						
149	55.81	67.52	20.73						
150	56.11	67.96	20.73						
151	56.4	68.39	20.73						
152	56.72	68.83	20.73						
153	56.99	69.27	20.73						
154	57.31	69.7	20.73						
155	57.63	70.14	20.73						
156	57.96	70.57	20.73						
157	58.28	71.01	20.73						
158	58.57	71.45	20.73						
159	58.9	71.88	20.73						
160	59.18	72.32	20.73						
161	59.5	72.75	20.73						
162	59.82	73.19	20.73						
163	60.15	73.62	20.73						
164	60.47	74.06	20.73						
165	60.75	74.49	20.73						
166	61.08	74.92	20.73						
167	61.36	75.35	20.73						
168	61.69	75.77	20.74						
169	62	76.2	20.74						
170	62.33	76.62	20.74						
171	62.67	77.05	20.74						
172	62.95	77.47	20.74						
173	63.28	77.89	20.74						
174	63.57	78.31	20.74						
175	63.89	78.73	20.74						
176	64.22	79.14	20.74						
177	64.55	79.56	20.74						
178	64.9	79.98	20.74						
179	65.18	80.39	20.74						
180	65.52	80.8	20.74						
181	65.81	81.22	20.74						
182	66.14	81.63	20.74						
183	66.47	82.04	20.74						
184	66.81	82.45	20.74						
185	67.16	82.87	20.74						
186	67.44	83.28	20.74						
187	67.78	83.68	20.74						
188	68.08	84.09	20.74						
189	68.41	84.5	20.74						
190	68.75	84.9	20.74						
191	69.09	85.3	20.74						
192	69.44	85.7	20.74						
193	69.73	86.1	20.74						
194	70.06	86.49	20.74						
195	70.36	86.89	20.74						
196	70.68	87.28	20.74						
197	71.02	87.67	20.74						
198	71.35	88.06	20.74						
199	71.71	88.45	20.74						
200	72	88.83	20.74						
201	72.34	89.22	20.74						
202	72.64	89.6	20.74						
203	72.97	89.99	20.74						
204	73.31	90.37	20.74						
205	73.65	90.76	20.74						
206	74.01	91.14	20.74						
207	74.3	91.52	20.74						
208	74.64	91.9	20.74						
209	74.95	92.29	20.74						
210	75.27	92.67	20.74						
211	75.63	93.05	20.74						
212	75.96	93.42	20.74						
213	76.32	93.8	20.74						
214	76.62	94.17	20.74						
215	76.96	94.55	20.75						
216	77.29	94.92	20.75						
217	77.61	95.29	20.75						
218	77.97	95.66	20.75						
219	78.31	96.03	20.75						
220	78.67	96.4	20.75						
221	78.98	96.77	20.75						
222	79.32	97.14	20.75						
223	79.65	97.5	20.75						
224	79.96	97.86	20.75						
225	80.33	98.23	20.75						
226	80.66	98.59	20.75						
227	81.02	98.94	20.75						
228	81.34	99.3	20.75						
229	81.66	99.66	20.75						
230	82	100.01	20.75						
231	82.31	100.37	20.75						
232	82.68	100.71	20.75						
233	83.01	101.06	20.75						
234	83.37	101.41	20.75						
235	83.68	101.75	20.75						
236	84.01	102.09	20.75						
237	84.35	102.43	20.75						
238	84.67	102.76	20.75						
239	85.04	103.09	20.75						
240	85.38	103.42	20.75						
241	85.74	103.76	20.75						
242	86.07	104.09	20.75						
243	86.4	104.41	20.75						
244	86.74	104.74	20.75						
245	87.06	105.07	20.75						
246	87.43	105.39	20.75						
247	87.77	105.72	20.75						
248	88.14	106.04	20.75						
249	88.47	106.36	20.75						
250	88.8	106.68	20.75						
251	89.16	107	20.75						
252	89.47	107.32	20.75						
253	89.84	107.63	20.75						
254	90.18	107.95	20.76						
255	90.54	108.26	20.76						
256	90.87	108.57	20.76						
257	91.19	108.88	20.76						
258	91.55	109.18	20.76						
259	91.86	109.49	20.76						
260	92.23	109.79	20.76						
261	92.57	110.09	20.76						
262	92.93	110.38	20.76						
263	93.27	110.68	20.76						
264	93.59	110.97	20.76						
265	93.96	111.27	20.76						
266	94.26	111.56	20.76						
267	94.63	111.84	20.76						
268	94.99	112.13	20.76						
269	95.35	112.42	20.76						
270	95.69	112.71	20.76						
271	96.01	112.99	20.76						
272	96.38	113.27	20.76						
273	96.69	113.56	20.76						
274	97.06	113.84	20.76						
275	97.43	114.12	20.76						
276	97.79	114.39	20.76						
277	98.13	114.67	20.76						
278	98.45	114.95	20.76						
279	98.82	115.22	20.76						
280	99.13	115.5	20.76						
281	99.5	115.77	20.76						
282	99.86	116.04	20.76						
283	100.22	116.31	20.76						
284	100.56	116.58	20.76						
285	100.88	116.84	20.76						
286	101.24	117.11	20.76						
287	101.56	117.37	20.76						
288	101.92	117.63	20.76						
289	102.29	117.9	20.76						
290	102.64	118.16	20.76						
291	103	118.42	20.76						
292	103.31	118.68	20.77						
293	103.68	118.94	20.77						
294	103.99	119.2	20.77						
295	104.36	119.45	20.77						
296	104.73	119.7	20.77						
297	105.07	119.95	20.77						
298	105.44	120.2	20.77						
299	105.75	120.45	20.77						
300	106.12	120.7	20.77						
301	106.44	120.95	20.77						
302	106.8	121.19	20.77						
303	107.18	121.44	20.77						
304	107.52	121.68	20.77						
305	107.9	121.93	20.77						
306	108.21	122.17	20.77						
307	108.57	122.41	20.77						
308	108.9	122.65	20.77						
309	109.26	122.89	20.77						
310	109.64	123.13	20.77						
311	109.98	123.36	20.77						
312	110.35	123.59	20.77						
313	110.65	123.83	20.77						
314	111.01	124.06	20.77						
315	111.35	124.29	20.77						
316	111.69	124.52	20.77						
317	112.08	124.74	20.77						
318	112.42	124.97	20.77						
319	112.79	125.2	20.77						
320	113.1	125.42	20.77						
321	113.46	125.65	20.77						
322	113.8	125.87	20.77						
323	114.15	126.09	20.77						
324	114.53	126.31	20.77						
325	114.88	126.53	20.77						
326	115.24	126.75	20.77						
327	115.56	126.96	20.77						
328	115.92	127.18	20.77						
329	116.27	127.39	20.77						
330	116.61	127.6	20.77						
331	117	127.82	20.78						
332	117.34	128.03	20.78						
333	117.71	128.24	20.78						
334	118.03	128.44	20.78						
335	118.4	128.65	20.78						
336	118.74	128.86	20.78						
337	119.08	129.06	20.78						
338	119.48	129.27	20.78						
339	119.81	129.47	20.78						
340	120.18	129.67	20.78						
341	120.5	129.88	20.78						
342	120.86	130.08	20.78						
343	121.2	130.28	20.78						
344	121.53	130.47	20.78						
345	121.93	130.67	20.78						
346	122.27	130.87	20.78						
347	122.64	131.06	20.78						
348	122.96	131.26	20.78						
349	123.31	131.46	20.78						
350	123.67	131.65	20.78						
351	124	131.85	20.78						
352	124.41	132.04	20.78						
353	124.74	132.24	20.78						
354	125.11	132.43	20.77						
355	125.44	132.63	20.77						
356	125.8	132.83	20.77						
357	126.16	133.03	20.77						
358	126.49	133.22	20.77						
359	126.9	133.42	20.77						
360	127.24	133.62	20.77						
361	127.61	133.81	20.78						
362	127.94	134.01	20.78						
363	128.29	134.21	20.78						
364	128.65	134.4	20.78						
365	128.98	134.59	20.78						
366	129.38	134.78	20.77						
367	129.72	134.96	20.77						
368	130.07	135.14	20.77						
369	130.41	135.33	20.77						
370	130.76	135.5	20.77						
371	131.11	135.68	20.77						
372	131.44	135.85	20.77						
373	131.84	136.03	20.77						
374	132.18	136.2	20.77						
375	132.54	136.37	20.77						
376	132.88	136.54	20.77						
377	133.22	136.71	20.77						
378	133.59	136.88	20.77						
379	133.91	137.05	20.77						
380	134.31	137.22	20.77						
381	134.66	137.39	20.77						
382	135.02	137.56	20.77						
383	135.36	137.73	20.77						
384	135.69	137.89	20.77						
385	136.07	138.05	20.77						
386	136.39	138.21	20.77						
387	136.79	138.37	20.77						
388	137.14	138.53	20.77						
389	137.49	138.69	20.77						
390	137.84	138.84	20.77						
391	138.17	139	20.77						
392	138.55	139.15	20.77						
393	138.88	139.3	20.77						
394	139.27	139.46	20.77						
395	139.62	139.61	20.77						
396	139.97	139.77	20.77						
397	140.32	139.92	20.78						
398	140.65	140.08	20.78						
399	141.02	140.23	20.78						
400	141.34	140.39	20.78						
401	141.73	140.54	20.78						
402	142.09	140.69	20.78						
403	142.44	140.84	20.78						
404	142.79	140.99	20.78						
405	143.12	141.14	20.78						
406	143.49	141.29	20.78						
407	143.81	141.44	20.77						
408	144.21	141.58	20.77						
409	144.57	141.73	20.77						
410	144.92	141.87	20.77						
411	145.27	142.01	20.77						
412	145.61	142.16	20.78						
413	145.97	142.3	20.78						
414	146.3	142.44	20.78						
415	146.69	142.58	20.78						
416	147.06	142.72	20.78						
417	147.4	142.86	20.78						
418	147.77	142.99	20.78						
419	148.1	143.13	20.78						
420	148.46	143.26	20.78						
421	148.8	143.4	20.78						
422	149.19	143.53	20.78						
423	149.56	143.66	20.78						
424	149.9	143.8	20.78						
425	150.26	143.93	20.78						
426	150.59	144.07	20.78						
427	150.95	144.2	20.78						
428	151.28	144.34	20.78						
429	151.67	144.47	20.78						
430	152.04	144.61	20.78						
431	152.38	144.74	20.78						
432	152.74	144.87	20.78						
433	153.06	145	20.78						
434	153.43	145.13	20.78						
435	153.77	145.25	20.78						
436	154.14	145.38	20.78						
437	154.53	145.5	20.78						
438	154.86	145.62	20.78						
439	155.22	145.74	20.78						
440	155.55	145.86	20.78						
441	155.92	145.99	20.78						
442	156.26	146.11	20.78						
443	156.64	146.23	20.78						
444	157.02	146.35	20.79						
445	157.36	146.47	20.79						
446	157.72	146.59	20.79						
447	158.05	146.71	20.79						
448	158.41	146.84	20.79						
449	158.76	146.96	20.79						
450	159.13	147.08	20.79						
451	159.52	147.2	20.79						
452	159.85	147.32	20.79						
453	160.21	147.44	20.79						
454	160.55	147.56	20.79						
455	160.91	147.68	20.79						
456	161.26	147.81	20.79						
457	161.62	147.92	20.79						
458	162.01	148.04	20.79						
459	162.34	148.16	20.79						
460	162.7	148.28	20.79						
461	163.03	148.4	20.79						
462	163.38	148.51	20.79						
463	163.74	148.62	20.79						
464	164.1	148.73	20.79						
465	164.49	148.84	20.79						
466	164.82	148.94	20.79						
467	165.18	149.05	20.79						
468	165.52	149.15	20.79						
469	165.87	149.25	20.79						
470	166.23	149.36	20.79						
471	166.59	149.46	20.79						
472	166.98	149.56	20.79						
473	167.32	149.67	20.79						
474	167.67	149.77	20.79						
475	168.02	149.88	20.79						
476	168.37	149.98	20.79						
477	168.74	150.09	20.79						
478	169.09	150.19	20.79						
479	169.48	150.29	20.79						
480	169.82	150.4	20.79						
481	170.17	150.5	20.8						
482	170.52	150.6	20.8						
483	170.86	150.7	20.8						
484	171.22	150.8	20.8						
485	171.57	150.9	20.8						
486	171.95	150.99	20.8						
487	172.29	151.09	20.8						
488	172.64	151.19	20.8						
489	173	151.28	20.8						
490	173.33	151.38	20.8						
491	173.7	151.47	20.8						
492	174.05	151.56	20.8						
493	174.44	151.66	20.8						
494	174.78	151.75	20.8						
495	175.14	151.84	20.8						
496	175.49	151.94	20.8						
497	175.82	152.03	20.8						
498	176.19	152.12	20.8						
499	176.54	152.21	20.8						
500	176.93	152.3	20.8						
501	177.28	152.39	20.8						
502	177.63	152.48	20.8						
503	177.99	152.57	20.8						
504	178.32	152.65	20.8						
505	178.69	152.74	20.8						
506	179.04	152.83	20.8						
507	179.43	152.91	20.8						
508	179.77	153	20.8						
509	180.11	153.08	20.8						
510	180.48	153.16	20.8						
511	180.8	153.25	20.8						
512	181.17	153.33	20.81						
513	181.52	153.42	20.81						
514	181.9	153.5	20.81						
515	182.26	153.58	20.81						
516	182.59	153.66	20.81						
517	182.96	153.74	20.81						
518	183.28	153.82	20.81						
519	183.65	153.9	20.81						
520	184	153.97	20.81						
521	184.37	154.04	20.81						
522	184.73	154.12	20.81						
523	185.07	154.19	20.81						
524	185.43	154.26	20.81						
525	185.77	154.33	20.81						
526	186.13	154.4	20.81						
527	186.49	154.47	20.81						
528	186.86	154.54	20.81						
529	187.23	154.62	20.81						
530	187.56	154.69	20.81						
531	187.92	154.76	20.81						
532	188.25	154.84	20.81						
533	188.62	154.91	20.81						
534	188.98	154.99	20.81						
535	189.35	155.06	20.81						
536	189.72	155.14	20.81						
537	190.05	155.21	20.81						
538	190.41	155.29	20.81						
539	190.75	155.38	20.81						
540	191.1	155.46	20.81						
541	191.46	155.54	20.81						
542	191.83	155.62	20.81						
543	192.2	155.7	20.81						
544	192.52	155.78	20.81						
545	192.89	155.86	20.81						
546	193.22	155.93	20.81						
547	193.57	156	20.81						
548	193.94	156.07	20.81						
549	194.31	156.14	20.81						
550	194.68	156.21	20.81						
551	195	156.27	20.81						
552	195.37	156.33	20.81						
553	195.7	156.39	20.81						
554	196.05	156.45	20.81						
555	196.42	156.51	20.81						
556	196.78	156.57	20.81						
557	197.16	156.62	20.81						
558	197.47	156.68	20.81						
559	197.84	156.72	20.81						
560	198.18	156.77	20.81						
561	198.53	156.8	20.81						
562	198.9	156.83	20.81						
563	199.26	156.86	20.81						
564	199.63	156.89	20.81						
565	199.95	156.93	20.81						
566	200.31	156.96	20.81						
567	200.65	157.01	20.81						
568	201	157.06	20.81						
569	201.38	157.12	20.81						
570	201.73	157.18	20.81						
571	202.11	157.24	20.81						
572	202.44	157.3	20.81						
573	202.8	157.36	20.81						
574	203.14	157.43	20.81						
575	203.49	157.49	20.81						
576	203.86	157.55	20.81						
577	204.21	157.61	20.82						
578	204.59	157.66	20.82						
579	204.92	157.72	20.82						
580	205.27	157.77	20.82						
581	205.62	157.83	20.82						
582	205.96	157.88	20.82						
583	206.35	157.93	20.82						
584	206.7	157.98	20.82						
585	207.08	158.03	20.82						
586	207.41	158.09	20.82						
587	207.77	158.15	20.82						
588	208.12	158.21	20.82						
589	208.46	158.27	20.82						
590	208.84	158.32	20.82						
591	209.18	158.38	20.82						
592	209.55	158.43	20.82						
593	209.89	158.49	20.82						
594	210.23	158.53	20.82						
595	210.59	158.58	20.82						
596	210.92	158.63	20.82						
597	211.3	158.67	20.82						
598	211.65	158.71	20.82						
599	212.03	158.75	20.82						
600	212.36	158.8	20.82						
601	212.7	158.85	20.82						
602	213.07	158.9	20.82						
603	213.39	158.94	20.82						
604	213.77	158.99	20.82						
605	214.12	159.04	20.82						
606	214.49	159.08	20.82						
607	214.84	159.12	20.82						
608	215.18	159.16	20.82						
609	215.54	159.2	20.82						
610	215.87	159.23	20.82						
611	216.24	159.26	20.82						
612	216.6	159.29	20.82						
613	216.97	159.32	20.82						
614	217.31	159.35	20.82						
615	217.64	159.37	20.82						
616	218.01	159.4	20.82						
617	218.34	159.43	20.82						
618	218.72	159.46	20.82						
619	219.08	159.49	20.82						
620	219.44	159.53	20.82						
621	219.79	159.56	20.82						
622	220.12	159.6	20.82						
623	220.49	159.64	20.82						
624	220.81	159.68	20.82						
625	221.19	159.72	20.82						
626	221.55	159.76	20.82						
627	221.91	159.79	20.82						
628	222.26	159.83	20.82						
629	222.59	159.86	20.82						
630	222.95	159.89	20.82						
631	223.28	159.92	20.82						
632	223.65	159.94	20.82						
633	224.02	159.97	20.82						
634	224.37	159.99	20.82						
635	224.73	160.01	20.82						
636	225.05	160.03	20.82						
637	225.42	160.05	20.82						
638	225.75	160.07	20.82						
639	226.12	160.08	20.82						
640	226.48	160.09	20.82						
641	226.83	160.1	20.82						
642	227.19	160.1	20.82						
643	227.52	160.09	20.82						
644	227.88	160.08	20.82						
645	228.2	160.05	20.82						
646	228.56	160	20.82						
647	228.92	159.94	20.83						
648	229.25	159.84	20.83						
649	229.6	159.71	20.83						
650	229.89	159.53	20.83						
651	230.22	159.28	20.82						
652	230.51	158.95	20.82						
653	230.8	158.5	20.82						
654	231.1	157.88	20.82						
655	231.37	157.05	20.82						
656	231.65	155.97	20.82						
657	231.89	154.62	20.82						
658	232.18	152.99	20.82						
659	232.42	151.08	20.82						
660	232.67	148.91	20.83						
661	232.94	146.49	20.83						
662	233.17	143.84	20.83						
663	233.41	140.95	20.83						
664	233.6	137.81	20.82						
665	233.83	134.42	20.82						
666	234.03	130.77	20.82						
667	234.25	126.86	20.82						
668	234.49	122.7	20.82						
669	234.68	118.31	20.83						
670	234.9	113.7	20.83						
671	235.07	108.87	20.83						
672	235.28	103.86	20.83						
673	235.47	98.69	20.83						
674	235.66	93.35	20.83						
675	235.9	87.87	20.83						
676	236.08	82.26	20.83						
677	236.28	76.54	20.83						
678	236.45	70.72	20.83						
679	236.66	64.81	20.83						
680	236.86	58.84	20.83						
681	237.06	52.81	20.83						
682	237.34	46.77	20.83						
683	237.57	40.75	20.83						
684	237.86	34.83	20.83						
685	238.14	29.09	20.83						
686	238.47	23.61	20.83						
687	238.83	18.52	20.83						
688	239.22	13.92	20.83						
689	239.7	9.95	20.83						
690	240.14	6.71	20.83						
691	240.61	4.3	20.83						
692	241.07	2.76	20.83						
693	241.54	2.1	20.83						
694	242.02	2.33	20.83						
695	242.48	3.36	20.83						
696	242.99	5.1	20.83						
697	243.44	7.46	20.83						
698	243.91	10.31	20.83						
699	244.36	13.57	20.83						
700	244.81	17.14	20.83						
701	245.27	20.94	20.83						
702	245.71	24.9	20.83						
703	246.2	28.96	20.83						
704	246.63	33.09	20.83						
705	247.07	37.23	20.83						
706	247.49	41.36	20.83						
707	247.91	45.44	20.83						
708	248.35	49.46	20.83						
709	248.75	53.4	20.83						
710	249.21	57.25	20.83						
711	249.61	60.99	20.83						
712	250.03	64.63	20.83						
713	250.43	68.14	20.83			傾き	切片		時間
714	250.82	71.54	20.83			0.090863233	105.9390798		661.1532984
715	251.25	74.82	20.83			y2傾き	y2切片		融点
716	251.63	77.99	20.83			-5.706264706	3938.729338		232.94
717	252.07	81.04	20.83						
718	252.47	83.99	20.83						
719	252.87	86.83	20.83						
720	253.25	89.57	20.83						
721	253.64	92.2	20.83						
722	254.05	94.73	20.83						
723	254.42	97.17	20.83						
724	254.85	99.52	20.83						
725	255.23	101.77	20.83						
726	255.62	103.94	20.83						
727	256	106.02	20.83						
728	256.37	108.02	20.83						
729	256.77	109.94	20.83						
730	257.13	111.79	20.83						
731	257.55	113.57	20.83						
732	257.93	115.28	20.83						
733	258.3	116.92	20.83						
734	258.68	118.5	20.83						
735	259.03	120.02	20.83						
736	259.43	121.49	20.83						
737	259.78	122.9	20.83						
738	260.19	124.26	20.83						
739	260.57	125.57	20.83						
740	260.93	126.83	20.83						
741	261.3	128.05	20.83						
742	261.65	129.22	20.83						
743	262.03	130.35	20.83						
744	262.38	131.44	20.83						
745	262.78	132.49	20.83						
746	263.16	133.5	20.83						
747	263.51	134.48	20.83						
748	263.88	135.41	20.83						
749	264.23	136.32	20.83						
750	264.61	137.18	20.83						
751	264.95	138.02	20.83						
752	265.35	138.82	20.83						
753	265.72	139.6	20.83						
754	266.07	140.35	20.83						
755	266.43	141.07	20.83						
756	266.78	141.77	20.83						
757	267.15	142.45	20.83						
758	267.5	143.1	20.83						
759	267.89	143.74	20.83						
760	268.26	144.35	20.83						
761	268.6	144.95	20.83						
762	268.97	145.52	20.83						
763	269.3	146.08	20.83						
764	269.67	146.62	20.83						
765	270.02	147.14	20.83						
766	270.4	147.64	20.83						
767	270.78	148.12	20.83						
768	271.11	148.59	20.83						
769	271.48	149.04	20.83						
770	271.82	149.48	20.83						
771	272.18	149.9	20.83						
772	272.52	150.31	20.83						
773	272.9	150.7	20.83						
774	273.28	151.08	20.83						
775	273.61	151.44	20.83						
776	273.97	151.8	20.83						
777	274.31	152.14	20.83						
778	274.66	152.47	20.83						
779	275.02	152.79	20.83						
780	275.39	153.1	20.83						
781	275.77	153.4	20.83						
782	276.1	153.69	20.83						
783	276.45	153.97	20.83						
784	276.79	154.24	20.83						
785	277.15	154.5	20.83						
786	277.51	154.75	20.83						
787	277.87	154.99	20.83						
788	278.25	155.23	20.83						
789	278.58	155.46	20.83						
790	278.93	155.68	20.83						
791	279.27	155.89	20.83						
792	279.62	156.1	20.83						
793	279.97	156.3	20.83						
794	280.33	156.48	20.83						
795	280.71	156.67	20.83						
796	281.04	156.84	20.83						
797	281.39	157.01	20.83						
798	281.74	157.18	20.83						
799	282.09	157.34	20.83						
800	282.44	157.5	20.83						
801	282.8	157.65	20.83						
802	283.18	157.8	20.83						
803	283.51	157.94	20.83						
804	283.85	158.08	20.83						
805	284.2	158.22	20.83						
806	284.54	158.34	20.84						
807	284.9	158.46	20.84						
808	285.25	158.57	20.84						
809	285.62	158.68	20.84						
810	285.96	158.77	20.84						
811	286.31	158.86	20.84						
812	286.66	158.94	20.84						
813	286.99	159.02	20.84						
814	287.35	159.1	20.84						
815	287.7	159.18	20.84						
816	288.08	159.26	20.84						
817	288.41	159.34	20.84						
818	288.75	159.42	20.84						
819	289.11	159.49	20.84						
820	289.43	159.56	20.84						
821	289.8	159.62	20.84						
822	290.15	159.68	20.84						
823	290.52	159.74	20.84						
824	290.85	159.79	20.84						
825	291.19	159.84	20.84						
826	291.54	159.89	20.84						
827	291.87	159.93	20.84						
828	292.22	159.96	20.84						
829	292.58	160	20.84						
830	292.95	160.03	20.84						
831	293.29	160.07	20.84						
832	293.62	160.1	20.84						
833	293.98	160.13	20.84						
834	294.31	160.16	20.84						
835	294.67	160.18	20.84						
836	295.02	160.21	20.84						
837	295.39	160.23	20.84						
838	295.73	160.25	20.84						
839	296.06	160.26	20.84						
840	296.42	160.28	20.84						
841	296.74	160.29	20.84						
842	297.1	160.3	20.84						
843	297.46	160.32	20.84						
844	297.83	160.34	20.84						
845	298.18	160.36	20.84						
846	298.51	160.38	20.84						
847	298.87	160.4	20.84						
848	299.19	160.43	20.84						
849	299.55	160.45	20.84						
850	299.91	160.47	20.84						
851	300.26	160.49	20.84						
852	300.62	160.51	20.84						
853	300.93	160.52	20.84						
854	301.3	160.53	20.84						
855	301.62	160.53	20.84						
856	301.97	160.52	20.84						
857	302.33	160.51	20.84						
858	302.69	160.49	20.84						
859	303.04	160.48	20.84						
860	303.36	160.45	20.84						
861	303.72	160.43	20.84						
862	304.05	160.4	20.84						
863	304.39	160.37	20.84						
864	304.76	160.35	20.84						
865	305.12	160.32	20.84						
866	305.48	160.29	20.84						
867	305.79	160.27	20.84						
868	306.15	160.25	20.84						
869	306.49	160.23	20.84						
870	306.83	160.2	20.84						
871	307.2	160.18	20.84						
872	307.55	160.15	20.84						
873	307.9	160.12	20.84						
874	308.22	160.09	20.84						
875	308.57	160.05	20.84						
876	308.9	160.01	20.84						
877	309.24	159.97	20.84						
878	309.62	159.92	20.84						
879	309.96	159.88	20.84						
880	310.32	159.83	20.84						
881	310.63	159.79	20.84						
882	310.99	159.75	20.84						
883	311.32	159.71	20.84						
884	311.66	159.67	20.84						
885	312.04	159.63	20.84						
886	312.38	159.59	20.84						
887	312.74	159.54	20.85						
888	313.05	159.5	20.85						
889	313.41	159.46	20.85						
890	313.74	159.41	20.85						
891	314.07	159.36	20.85						
892	314.46	159.31	20.85						
893	314.8	159.26	20.85						
894	315.16	159.21	20.85						
895	315.48	159.16	20.85						
896	315.84	159.12	20.85						
897	316.18	159.08	20.85						
898	316.51	159.05	20.85						
899	316.89	159.02	20.85						
900	317.23	158.99	20.85						
901	317.59	158.95	20.85						
902	317.91	158.92	20.85						
903	318.26	158.88	20.85						
904	318.6	158.83	20.85						
905	318.93	158.79	20.85						
906	319.31	158.74	20.85						
907	319.64	158.69	20.85						
908	320	158.63	20.85						
909	320.32	158.58	20.85						
910	320.66	158.53	20.85						
911	321.01	158.47	20.85						
912	321.33	158.42	20.85						
913	321.71	158.36	20.85						
914	322.04	158.29	20.85						
915	322.4	158.23	20.85						
916	322.73	158.17	20.85						
917	323.07	158.1	20.85						
918	323.42	158.04	20.85						
919	323.74	157.98	20.85						
920	324.12	157.91	20.85						
921	324.46	157.85	20.85						
922	324.82	157.79	20.85						
923	325.14	157.74	20.85						
924	325.48	157.68	20.85						
925	325.84	157.63	20.85						
926	326.15	157.58	20.85						
927	326.54	157.53	20.85						
928	326.88	157.48	20.85						
929	327.24	157.43	20.85						
930	327.56	157.38	20.85						
931	327.9	157.33	20.85						
932	328.25	157.27	20.85						
933	328.56	157.21	20.85						
934	328.93	157.15	20.85						
935	329.27	157.08	20.85						
936	329.62	157	20.85						
937	329.95	156.93	20.85						
938	330.28	156.85	20.85						
939	330.64	156.77	20.85						
940	330.96	156.7	20.85						
941	331.34	156.63	20.85						
942	331.69	156.57	20.85						
943	332.04	156.51	20.85						
944	332.38	156.46	20.85						
945	332.71	156.42	20.85						
946	333.06	156.38	20.85						
947	333.38	156.34	20.85						
948	333.76	156.3	20.85						
949	334.1	156.26	20.85						
950	334.45	156.21	20.85						
951	334.79	156.16	20.85						
952	335.11	156.11	20.85						
953	335.47	156.06	20.85						
954	335.79	156	20.85						
955	336.17	155.94	20.85						
956	336.52	155.88	20.85						
957	336.86	155.83	20.85						
958	337.21	155.77	20.85						
959	337.53	155.71	20.85						
960	337.89	155.66	20.85						
961	338.21	155.61	20.85						
962	338.58	155.56	20.85						
963	338.93	155.52	20.85						
964	339.27	155.47	20.85						
965	339.62	155.43	20.85						
966	339.94	155.39	20.85						
967	340.3	155.34	20.85						
968	340.62	155.3	20.85						
969	340.99	155.25	20.85						
970	341.34	155.2	20.85						
971	341.67	155.15	20.85						
972	342.02	155.1	20.85						
973	342.33	155.04	20.85						
974	342.69	154.98	20.85						
975	343.01	154.92	20.85						
976	343.38	154.85	20.85						
977	343.74	154.79	20.85						
978	344.07	154.73	20.85						
979	344.43	154.67	20.85						
980	344.74	154.62	20.85						
981	345.1	154.56	20.85						
982	345.43	154.52	20.85						
983	345.79	154.47	20.85						
984	346.16	154.42	20.85						
985	346.48	154.38	20.85						
986	346.84	154.34	20.85						
987	347.16	154.3	20.85						
988	347.51	154.25	20.85						
989	347.84	154.21	20.85						
990	348.19	154.16	20.85						
991	348.56	154.1	20.85						
992	348.88	154.04	20.85						
993	349.23	153.98	20.85						
994	349.55	153.92	20.85						
995	349.9	153.85	20.85						
996	350.23	153.78	20.85						
997	350.58	153.71	20.85						
998	350.95	153.65	20.85						
999	351.28	153.58	20.85						
1000	351.63	153.52	20.85						
1001	351.95	153.45	20.85						
1002	352.3	153.39	20.85						
1003	352.63	153.34	20.85						
1004	352.98	153.28	20.85						
1005	353.35	153.21	20.85						
1006	353.67	153.15	20.85						
1007	354.01	153.08	20.85						
1008	354.34	153.01	20.85						
1009	354.68	152.93	20.85						
1010	355.02	152.86	20.85						
1011	355.36	152.78	20.85						
1012	355.74	152.71	20.85						
1013	356.07	152.64	20.85						
1014	356.41	152.57	20.85						
1015	356.74	152.51	20.85						
1016	357.08	152.45	20.85						
1017	357.42	152.39	20.85						
1018	357.76	152.33	20.85						
1019	358.13	152.28	20.85						
1020	358.45	152.22	20.85						
1021	358.8	152.17	20.85						
1022	359.13	152.11	20.85						
1023	359.46	152.05	20.85						
1024	359.81	151.99	20.85						
1025	360.15	151.92	20.85						
1026	360.52	151.86	20.85						
1027	360.85	151.8	20.85						
1028	361.19	151.75	20.86						
1029	361.53	151.7	20.86						
1030	361.86	151.64	20.86						
1031	362.2	151.6	20.86						
1032	362.54	151.55	20.86						
1033	362.91	151.5	20.86						
1034	363.24	151.45	20.85						
1035	363.58	151.39	20.86						
1036	363.92	151.34	20.85						
1037	364.25	151.29	20.86						
1038	364.59	151.23	20.86						
1039	364.93	151.18	20.86						
1040	365.3	151.12	20.86						
1041	365.63	151.06	20.86						
1042	365.96	151	20.86						
1043	366.3	150.94	20.86						
1044	366.62	150.87	20.86						
1045	366.98	150.8	20.86						
1046	367.31	150.73	20.86						
1047	367.68	150.66	20.86						
1048	368.02	150.59	20.86						
1049	368.35	150.53	20.86						
1050	368.7	150.47	20.86						
1051	369.01	150.42	20.86						
1052	369.36	150.37	20.86						
1053	369.69	150.31	20.86						
1054	370.06	150.26	20.86						
1055	370.4	150.21	20.86						
1056	370.72	150.15	20.86						
1057	371.07	150.09	20.86						
1058	371.38	150.03	20.86						
1059	371.74	149.96	20.86						
1060	372.07	149.9	20.86						
1061	372.44	149.84	20.86						
1062	372.79	149.79	20.86						
1063	373.12	149.73	20.86						
1064	373.47	149.69	20.86						
1065	373.78	149.65	20.86						
1066	374.13	149.61	20.86						
1067	374.47	149.57	20.86						
1068	374.83	149.53	20.85						
1069	375.18	149.49	20.85						
1070	375.49	149.44	20.85						
1071	375.84	149.39	20.85						
1072	376.16	149.33	20.85						
1073	376.51	149.26	20.85						
1074	376.85	149.19	20.85						
1075	377.21	149.11	20.85						
1076	377.56	149.04	20.85						
1077	377.88	148.97	20.85						
1078	378.23	148.9	20.85						
1079	378.55	148.84	20.85						
1080	378.9	148.79	20.85						
1081	379.24	148.74	20.85						
1082	379.6	148.7	20.85						
1083	379.96	148.66	20.85						
1084	380.28	148.62	20.85						
1085	380.63	148.59	20.85						
1086	380.95	148.56	20.85						
1087	381.29	148.52	20.85						
1088	381.63	148.49	20.86						
1089	381.99	148.44	20.86						
1090	382.34	148.39	20.86						
1091	382.65	148.33	20.86						
1092	383	148.26	20.86						
1093	383.32	148.19	20.86						
1094	383.65	148.11	20.86						
1095	384.01	148.03	20.86						
1096	384.36	147.94	20.86						
1097	384.72	147.86	20.86						
1098	385.03	147.78	20.86						
1099	385.38	147.7	20.86						
1100	385.7	147.63	20.86						
1101	386.04	147.57	20.86						
1102	386.4	147.5	20.86						
1103	386.74	147.44	20.86						
1104	387.1	147.38	20.86						
1105	387.41	147.33	20.86						
1106	387.75	147.27	20.86						
1107	388.09	147.21	20.86						
1108	388.42	147.15	20.86						
1109	388.77	147.09	20.86						
1110	389.11	147.03	20.86						
1111	389.47	146.96	20.86						
1112	389.79	146.89	20.86						
1113	390.12	146.81	20.86						
1114	390.46	146.74	20.86						
1115	390.78	146.66	20.86						
1116	391.14	146.57	20.86						
1117	391.47	146.49	20.86						
1118	391.83	146.4	20.86						
1119	392.16	146.31	20.86						
1120	392.49	146.22	20.86						
1121	392.83	146.14	20.86						
1122	393.16	146.06	20.86						
1123	393.52	145.98	20.86						
1124	393.85	145.9	20.86						
1125	394.21	145.83	20.86						
1126	394.54	145.76	20.86						
1127	394.86	145.69	20.86						
1128	395.21	145.62	20.86						
1129	395.53	145.55	20.86						
1130	395.89	145.48	20.87						
1131	396.23	145.41	20.87						
1132	396.59	145.34	20.87						
1133	396.92	145.27	20.87						
1134	397.25	145.2	20.87						
1135	397.59	145.14	20.87						
1136	397.91	145.07	20.87						
1137	398.26	145	20.87						
1138	398.6	144.93	20.87						
1139	398.96	144.86	20.87						
1140	399.28	144.79	20.87						
1141	399.6	144.71	20.87						
1142	399.95	144.62	20.87						
1143	400.27	144.53	20.87						
1144	400.62	144.44	20.87						
1145	400.97	144.35	20.87						
1146	401.32	144.26	20.87						
1147	401.65	144.17	20.87						
1148	401.97	144.08	20.87						
1149	402.32	143.99	20.87						
1150	402.63	143.91	20.87						
1151	402.99	143.82	20.87						
1152	403.34	143.74	20.87						
1153	403.68	143.65	20.87						
1154	404.02	143.57	20.87						
1155	404.34	143.49	20.87						
1156	404.69	143.41	20.87						
1157	405	143.32	20.87						
1158	405.35	143.23	20.87						
1159	405.7	143.15	20.87						
1160	406.04	143.06	20.87						
1161	406.39	142.97	20.87						
1162	406.7	142.88	20.87						
1163	407.05	142.79	20.87						
1164	407.37	142.7	20.87						
1165	407.72	142.61	20.87						
1166	408.08	142.54	20.87						
1167	408.42	142.46	20.87						
1168	408.77	142.39	20.87						
1169	409.08	142.32	20.87						
1170	409.43	142.25	20.87						
1171	409.75	142.18	20.87						
1172	410.09	142.1	20.87						
1173	410.45	142.02	20.87						
1174	410.78	141.94	20.87						
1175	411.13	141.85	20.87						
1176	411.43	141.76	20.87						
1177	411.78	141.66	20.87						
1178	412.11	141.56	20.87						
1179	412.45	141.46	20.87						
1180	412.81	141.35	20.87						
1181	413.14	141.24	20.87						
1182	413.49	141.13	20.87						
1183	413.79	141.02	20.87						
1184	414.14	140.9	20.88						
1185	414.46	140.79	20.88						
1186	414.79	140.66	20.88						
1187	415.16	140.54	20.88						
1188	415.48	140.4	20.88						
1189	415.82	140.27	20.88						
1190	416.13	140.12	20.88						
1191	416.47	139.97	20.88						
1192	416.79	139.81	20.88						
1193	417.11	139.63	20.88						
1194	417.47	139.43	20.88						
1195	417.79	139.19	20.88						
1196	418.14	138.93	20.88						
1197	418.45	138.66	20.88						
1198	418.8	138.38	20.88						
1199	419.13	138.12	20.88						
1200	419.46	137.89	20.88						
1201	419.84	137.71	20.88						
1202	420.17	137.57	20.88						
1203	420.51	137.46	20.88						
1204	420.82	137.39	20.88						
1205	421.16	137.32	20.88						
1206	421.5	137.26	20.88						
1207	421.81	137.21	20.88						
1208	422.19	137.15	20.88						
1209	422.51	137.09	20.88						
1210	422.85	137.03	20.88						
1211	423.16	136.96	20.88						
1212	423.5	136.89	20.88						
1213	423.83	136.81	20.87						
1214	424.15	136.73	20.87						
1215	424.53	136.64	20.88						
1216	424.85	136.56	20.88						
1217	425.19	136.48	20.88						
1218	425.51	136.4	20.88						
1219	425.85	136.32	20.88						
1220	426.18	136.24	20.88						
1221	426.5	136.16	20.88						
1222	426.88	136.08	20.88						
1223	427.2	136	20.88						
1224	427.54	135.92	20.88						
1225	427.87	135.85	20.88						
1226	428.2	135.77	20.88						
1227	428.54	135.69	20.88						
1228	428.85	135.61	20.88						
1229	429.22	135.53	20.88						
1230	429.55	135.44	20.88						
1231	429.88	135.35	20.88						
1232	430.21	135.25	20.88						
1233	430.53	135.15	20.88						
1234	430.88	135.05	20.88						
1235	431.18	134.94	20.88						
1236	431.56	134.84	20.89						
1237	431.89	134.73	20.89						
1238	432.23	134.63	20.89						
1239	432.56	134.53	20.89						
1240	432.88	134.43	20.89						
1241	433.22	134.34	20.89						
1242	433.53	134.24	20.89						
1243	433.9	134.14	20.89						
1244	434.23	134.04	20.89						
1245	434.56	133.93	20.89						
1246	434.9	133.83	20.89						
1247	435.21	133.72	20.89						
1248	435.56	133.61	20.89						
1249	435.87	133.5	20.89						
1250	436.24	133.39	20.89						
1251	436.58	133.28	20.89						
1252	436.91	133.18	20.89						
1253	437.25	133.07	20.89						
1254	437.56	132.97	20.89						
1255	437.91	132.88	20.89						
1256	438.22	132.78	20.89						
1257	438.58	132.69	20.89						
1258	438.92	132.59	20.89						
1259	439.25	132.49	20.89						
1260	439.59	132.39	20.89						
1261	439.9	132.29	20.89						
1262	440.25	132.18	20.89						
1263	440.56	132.07	20.89						
1264	440.92	131.96	20.89						
1265	441.27	131.84	20.89						
1266	441.59	131.73	20.89						
1267	441.93	131.62	20.89						
1268	442.24	131.51	20.89						
1269	442.58	131.4	20.89						
1270	442.9	131.3	20.89						
1271	443.26	131.19	20.89						
1272	443.61	131.08	20.89						
1273	443.93	130.97	20.89						
1274	444.27	130.87	20.89						
1275	444.58	130.76	20.89						
1276	444.92	130.65	20.89						
1277	445.24	130.54	20.89						
1278	445.6	130.42	20.89						
1279	445.95	130.31	20.89						
1280	446.26	130.19	20.89						
1281	446.6	130.08	20.89						
1282	446.92	129.96	20.89						
1283	447.26	129.85	20.89						
1284	447.58	129.73	20.89						
1285	447.93	129.62	20.89						
1286	448.3	129.5	20.89						
1287	448.61	129.39	20.89						
1288	448.94	129.28	20.89						
1289	449.27	129.16	20.89						
1290	449.6	129.05	20.89						
1291	449.93	128.94	20.89						
1292	450.27	128.83	20.89						
1293	450.63	128.72	20.89						
1294	450.95	128.62	20.89						
1295	451.28	128.51	20.89						
1296	451.61	128.4	20.89						
1297	451.94	128.29	20.89						
1298	452.28	128.18	20.89						
1299	452.62	128.07	20.89						
1300	452.98	127.97	20.89						
1301	453.3	127.86	20.89						
1302	453.63	127.76	20.89						
1303	453.96	127.66	20.89						
1304	454.27	127.56	20.89						
1305	454.62	127.45	20.89						
1306	454.96	127.34	20.89						
1307	455.31	127.23	20.89						
1308	455.63	127.11	20.89						
1309	455.96	126.99	20.89						
1310	456.29	126.87	20.89						
1311	456.61	126.74	20.89						
1312	456.95	126.62	20.89						
1313	457.28	126.48	20.89						
1314	457.63	126.35	20.89						
1315	457.96	126.21	20.89						
1316	458.28	126.07	20.89						
1317	458.62	125.93	20.89						
1318	458.93	125.79	20.89						
1319	459.27	125.65	20.89						
1320	459.61	125.51	20.89						
1321	459.97	125.38	20.89						
1322	460.29	125.26	20.89						
1323	460.61	125.14	20.89						
1324	460.94	125.02	20.89						
1325	461.25	124.89	20.89						
1326	461.59	124.76	20.89						
1327	461.93	124.63	20.89						
1328	462.28	124.49	20.89						
1329	462.61	124.35	20.89						
1330	462.92	124.21	20.89						
1331	463.26	124.07	20.89						
1332	463.57	123.92	20.89						
1333	463.91	123.78	20.89						
1334	464.25	123.65	20.89						
1335	464.6	123.51	20.89						
1336	464.94	123.38	20.89						
1337	465.24	123.26	20.89						
1338	465.59	123.13	20.89						
1339	465.9	123.01	20.89						
1340	466.24	122.9	20.89						
1341	466.58	122.79	20.89						
1342	466.93	122.68	20.89						
1343	467.27	122.57	20.89						
1344	467.57	122.46	20.89						
1345	467.91	122.35	20.89						
1346	468.22	122.24	20.89						
1347	468.55	122.12	20.89						
1348	468.9	122	20.89						
1349	469.24	121.87	20.89						
1350	469.58	121.75	20.89						
1351	469.89	121.62	20.89						
1352	470.23	121.49	20.89						
1353	470.55	121.37	20.89						
1354	470.88	121.25	20.89						
1355	471.23	121.14	20.89						
1356	471.58	121.03	20.89						
1357	471.94	120.93	20.89						
1358	472.25	120.85	20.89						
1359	472.6	120.78	20.89						
1360	472.92	120.73	20.89						
1361	473.25	120.68	20.89						
1362	473.6	120.64	20.89						
1363	473.93	120.6	20.89						
1364	474.28	120.54	20.89						
1365	474.58	120.47	20.9						
1366	474.91	120.38	20.9						
1367	475.22	120.27	20.9						
1368	475.54	120.14	20.9						
1369	475.89	119.99	20.9						
1370	476.22	119.82	20.9						
1371	476.57	119.65	20.9						
1372	476.88	119.47	20.9						
1373	477.23	119.31	20.9						
1374	477.56	119.16	20.9						
1375	477.89	119.03	20.9						
1376	478.26	118.92	20.9						
1377	478.59	118.84	20.9						
1378	478.94	118.77	20.89						
1379	479.24	118.72	20.89						
1380	479.57	118.66	20.89						
1381	479.9	118.6	20.89						
1382	480.22	118.53	20.89						
1383	480.57	118.44	20.89						
1384	480.9	118.33	20.89						
1385	481.24	118.21	20.9						
1386	481.55	118.07	20.9						
1387	481.88	117.93	20.9						
1388	482.22	117.79	20.9						
1389	482.53	117.64	20.9						
1390	482.89	117.5	20.9						
1391	483.23	117.37	20.9						
1392	483.58	117.25	20.9						
1393	483.9	117.14	20.9						
1394	484.23	117.03	20.9						
1395	484.57	116.93	20.9						
1396	484.88	116.84	20.9						
1397	485.23	116.76	20.9						
1398	485.57	116.67	20.9						
1399	485.92	116.59	20.9						
1400	486.24	116.5	20.9						
1401	486.56	116.42	20.9						
1402	486.9	116.32	20.9						
1403	487.2	116.23	20.9						
1404	487.56	116.12	20.9						
1405	487.9	116.01	20.9						
1406	488.24	115.9	20.9						
1407	488.57	115.78	20.9						
1408	488.88	115.66	20.9						
1409	489.23	115.54	20.9						
1410	489.53	115.42	20.9						
1411	489.88	115.3	20.9						
1412	490.23	115.18	20.9						
1413	490.56	115.07	20.9						
1414	490.9	114.95	20.9						
1415	491.21	114.84	20.9						
1416	491.56	114.73	20.9						
1417	491.87	114.63	20.9						
1418	492.22	114.52	20.9						
1419	492.57	114.42	20.9						
1420	492.9	114.32	20.9						
1421	493.24	114.22	20.9						
1422	493.54	114.12	20.9						
1423	493.89	114.01	20.9						
1424	494.2	113.91	20.9						
1425	494.54	113.81	20.9						
1426	494.89	113.7	20.9						
1427	495.22	113.59	20.9						
1428	495.57	113.49	20.9						
1429	495.87	113.38	20.9						
1430	496.22	113.27	20.9						
1431	496.54	113.17	20.9						
1432	496.88	113.06	20.9						
1433	497.24	112.96	20.9						
1434	497.56	112.86	20.9						
1435	497.92	112.76	20.9						
1436	498.21	112.67	20.9						
1437	498.56	112.57	20.9						
1438	498.88	112.47	20.9						
1439	499.21	112.38	20.9						
1440	499.57	112.28	20.9						
1441	499.89	112.17	20.9						
1442	500.23	112.06	20.9						
1443	500.53	111.94	20.9						
1444	500.87	111.81	20.9						
1445	501.19	111.68	20.91						
1446	501.51	111.54	20.91						
1447	501.88	111.39	20.91						
1448	502.2	111.25	20.91						
1449	502.54	111.1	20.91						
1450	502.84	110.96	20.91						
1451	503.18	110.81	20.91						
1452	503.51	110.67	20.91						
1453	503.83	110.53	20.91						
1454	504.2	110.39	20.91						
1455	504.51	110.25	20.91						
1456	504.85	110.11	20.91						
1457	505.16	109.98	20.91						
1458	505.49	109.85	20.91						
1459	505.82	109.71	20.91						
1460	506.13	109.58	20.91						
1461	506.48	109.45	20.91						
1462	506.75	109.3	20.91						
1463	507.01	109.11	20.91						
1464	507.22	108.85	20.91						
1465	507.43	108.48	20.91						
1466	507.62	107.97	20.91						
1467	507.76	107.28	20.91						
1468	507.96	106.38	20.91						
1469	508.1	105.26	20.91						
1470	508.24	103.94	20.91						
1471	508.37	102.43	20.91						
1472	508.49	100.75	20.91						
1473	508.64	98.95	20.91						
1474	508.74	97.05	20.91						
1475	508.91	95.08	20.91						
1476	509.01	93.07	20.91						
1477	509.13	91.05	20.91						
1478	509.23	89.03	20.91						
1479	509.31	87.01	20.92						
1480	509.42	85	20.92						
1481	509.48	83	20.92						
1482	509.6	81.01	20.92						
1483	509.67	79.03	20.92						
1484	509.73	77.04	20.92						
1485	509.79	75.06	20.92						
1486	509.83	73.08	20.92						
1487	509.9	71.1	20.92						
1488	509.92	69.12	20.92						
1489	510	67.15	20.92						
1490	510.04	65.19	20.92						
1491	510.07	63.24	20.92						
1492	510.11	61.31	20.92						
1493	510.11	59.39	20.92						
1494	510.15	57.49	20.92						
1495	510.15	55.62	20.92						
1496	510.2	53.76	20.92						
1497	510.21	51.92	20.92						
1498	510.22	50.1	20.92						
1499	510.22	48.3	20.92						
1500	510.2	46.53	20.92						
1501	510.21	44.78	20.92						
1502	510.19	43.06	20.92						
1503	510.21	41.36	20.92						
1504	510.23	39.69	20.92						
1505	510.2	38.04	20.92						
1506	510.2	36.43	20.92						
1507	510.17	34.86	20.92						
1508	510.17	33.32	20.92						
1509	510.14	31.82	20.92						
1510	510.15	30.36	20.92						
1511	510.15	28.95	20.92						
1512	510.11	27.58	20.92						
1513	510.09	26.24	20.92						
1514	510.05	24.94	20.92						
1515	510.03	23.66	20.92						
1516	509.99	22.42	20.92						
1517	509.98	21.19	20.92						
1518	509.97	19.99	20.92						
1519	509.92	18.82	20.92						
1520	509.89	17.67	20.92						
1521	509.84	16.54	20.93						
1522	509.81	15.44	20.93						
1523	509.78	14.38	20.93						
1524	509.75	13.34	20.93						
1525	509.74	12.33	20.93						
1526	509.68	11.35	20.93						
1527	509.65	10.41	20.93						
1528	509.6	9.49	20.93						
1529	509.55	8.6	20.93						
1530	509.51	7.73	20.93						
1531	509.48	6.89	20.93						
1532	509.46	6.07	20.93						
1533	509.4	5.28	20.93						
1534	509.36	4.51	20.93						
1535	509.31	3.77	20.93						
1536	509.26	3.05	20.93						
1537	509.22	2.36	20.93						
1538	509.18	1.7	20.93						
1539	509.16	1.06	20.93						
1540	509.11	0.44	20.93						
1541	509.06	-0.16	20.93						
1542	509.01	-0.73	20.93						
1543	508.95	-1.29	20.93						
1544	508.92	-1.82	20.93						
1545	508.86	-2.34	20.93						
1546	508.84	-2.85	20.93						
1547	508.79	-3.33	20.93						
1548	508.74	-3.8	20.93						
1549	508.68	-4.26	20.93						
1550	508.62	-4.7	20.93						
1551	508.59	-5.13	20.93						
1552	508.53	-5.54	20.93						
1553	508.51	-5.94	20.93						
1554	508.46	-6.32	20.93						
1555	508.4	-6.69	20.93						
1556	508.35	-7.04	20.93						
1557	508.28	-7.37	20.93						
1558	508.24	-7.7	20.93						
1559	508.19	-8.01	20.93						
1560	508.16	-8.3	20.93						
1561	508.11	-8.59	20.93						
1562	508.04	-8.87	20.93						
1563	508	-9.14	20.93						
1564	507.92	-9.41	20.93						
1565	507.88	-9.68	20.93						
1566	507.82	-9.94	20.93						
1567	507.79	-10.19	20.93						
1568	507.75	-10.43	20.93						
1569	507.68	-10.67	20.93						
1570	507.63	-10.89	20.93						
1571	507.56	-11.1	20.93						
1572	507.52	-11.29	20.93						
1573	507.46	-11.48	20.93						
1574	507.44	-11.64	20.93						
1575	507.4	-11.8	20.93						
1576	507.32	-11.94	20.93						
1577	507.29	-12.08	20.93						
1578	507.22	-12.2	20.93						
1579	507.17	-12.31	20.93						
1580	507.12	-12.42	20.93						
1581	507.09	-12.52	20.93						
1582	507.06	-12.6	20.93						
1583	506.98	-12.68	20.93						
1584	506.94	-12.75	20.93						
1585	506.87	-12.81	20.93						
1586	506.82	-12.87	20.93						
1587	506.78	-12.92	20.93						
1588	506.74	-12.98	20.93						
1589	506.7	-13.03	20.93						
1590	506.63	-13.08	20.93						
1591	506.59	-13.13	20.93						
1592	506.52	-13.17	20.93						
1593	506.47	-13.22	20.93						
1594	506.42	-13.26	20.93						
1595	506.38	-13.3	20.93						
1596	506.35	-13.33	20.93						
1597	506.28	-13.36	20.93						
1598	506.24	-13.38	20.93						
1599	506.17	-13.39	20.93						
1600	506.12	-13.4	20.93						
1601	506.08	-13.41	20.93						
1602	506.03	-13.41	20.94						
1603	506	-13.42	20.94						
1604	505.93	-13.41	20.94						
1605	505.88	-13.41	20.94						
1606	505.83	-13.4	20.94						
1607	505.77	-13.39	20.94						
1608	505.74	-13.38	20.94						
1609	505.69	-13.36	20.94						
1610	505.67	-13.33	20.94						
1611	505.61	-13.3	20.94						
1612	505.55	-13.27	20.94						
1613	505.51	-13.23	20.94						
1614	505.45	-13.18	20.94						
1615	505.42	-13.13	20.93						
1616	505.37	-13.07	20.93						
1617	505.36	-13.01	20.93						
1618	505.3	-12.93	20.93						
1619	505.24	-12.86	20.93						
1620	505.2	-12.78	20.93						
1621	505.14	-12.69	20.93						
1622	505.1	-12.61	20.93						
1623	505.06	-12.54	20.93						
1624	505.03	-12.47	20.93						
1625	504.97	-12.4	20.93						
1626	504.91	-12.35	20.93						
1627	504.88	-12.3	20.93						
1628	504.81	-12.25	20.93						
1629	504.78	-12.2	20.94						
1630	504.75	-12.14	20.94						
1631	504.73	-12.08	20.94						
1632	504.68	-12	20.94						
1633	504.62	-11.91	20.94						
1634	504.6	-11.81	20.94						
1635	504.53	-11.7	20.94						
1636	504.49	-11.59	20.94						
1637	504.47	-11.47	20.94						
1638	504.43	-11.36	20.94						
1639	504.39	-11.25	20.94						
1640	504.32	-11.14	20.94						
1641	504.29	-11.04	20.94						
1642	504.22	-10.95	20.94						
1643	504.18	-10.86	20.94						
1644	504.16	-10.79	20.94						
1645	504.12	-10.72	20.94						
1646	504.09	-10.65	20.94						
1647	504.01	-10.59	20.94						
1648	503.99	-10.52	20.94						
1649	503.93	-10.45	20.94						
1650	503.89	-10.36	20.94						
1651	503.88	-10.27	20.94						
1652	503.84	-10.17	20.94						
1653	503.82	-10.06	20.94						
1654	503.74	-9.95	20.94						
1655	503.72	-9.83	20.94						
1656	503.67	-9.71	20.94						
1657	503.63	-9.59	20.94						
1658	503.61	-9.47	20.94						
1659	503.56	-9.36	20.94						
1660	503.53	-9.25	20.94						
1661	503.46	-9.14	20.94						
1662	503.43	-9.05	20.94						
1663	503.38	-8.96	20.94						
1664	503.33	-8.87	20.94						
1665	503.33	-8.78	20.94						
1666	503.28	-8.69	20.94						
1667	503.26	-8.6	20.94						
1668	503.19	-8.51	20.94						
1669	503.16	-8.42	20.94						
1670	503.11	-8.33	20.94						
1671	503.06	-8.23	20.94						
1672	503.06	-8.14	20.94						
1673	503.01	-8.04	20.94						
1674	502.99	-7.94	20.94						
1675	502.93	-7.84	20.94						
1676	502.89	-7.73	20.94						
1677	502.85	-7.62	20.94						
1678	502.8	-7.5	20.94						
1679	502.8	-7.39	20.94						
1680	502.75	-7.28	20.94						
1681	502.73	-7.18	20.94						
1682	502.67	-7.08	20.94						
1683	502.64	-6.98	20.94						
1684	502.6	-6.88	20.94						
1685	502.54	-6.78	20.94						
1686	502.54	-6.69	20.94						
1687	502.5	-6.6	20.94						
1688	502.47	-6.5	20.94						
1689	502.43	-6.4	20.94						
1690	502.39	-6.31	20.94						
1691	502.36	-6.21	20.94						
1692	502.3	-6.1	20.94						
1693	502.3	-5.99	20.94						
1694	502.26	-5.89	20.94						
1695	502.23	-5.77	20.94						
1696	502.19	-5.66	20.94						
1697	502.15	-5.54	20.94						
1698	502.13	-5.43	20.94						
1699	502.07	-5.31	20.94						
1700	502.07	-5.19	20.94						
1701	502.04	-5.07	20.94						
1702	502.01	-4.94	20.94						
1703	501.98	-4.82	20.94						
1704	501.93	-4.7	20.94						
1705	501.91	-4.57	20.94						
1706	501.85	-4.45	20.94						
1707	501.84	-4.33	20.94						
1708	501.82	-4.2	20.94						
1709	501.79	-4.08	20.94						
1710	501.76	-3.96	20.95						
1711	501.7	-3.84	20.95						
1712	501.69	-3.73	20.95						
1713	501.64	-3.61	20.95						
1714	501.63	-3.5	20.95						
1715	501.61	-3.39	20.95						
1716	501.58	-3.28	20.95						
1717	501.56	-3.17	20.95						
1718	501.5	-3.06	20.95						
1719	501.48	-2.95	20.95						
1720	501.43	-2.84	20.95						
1721	501.41	-2.74	20.95						
1722	501.4	-2.64	20.95						
1723	501.36	-2.54	20.95						
1724	501.34	-2.44	20.95						
1725	501.29	-2.34	20.95						
1726	501.27	-2.25	20.95						
1727	501.22	-2.15	20.95						
1728	501.2	-2.05	20.95						
1729	501.2	-1.95	20.95						
1730	501.16	-1.85	20.95						
1731	501.14	-1.74	20.95						
1732	501.09	-1.64	20.95						
1733	501.07	-1.53	20.95						
1734	501.03	-1.42	20.95						
1735	501	-1.31	20.95						
1736	501.01	-1.2	20.95						
1737	500.97	-1.1	20.95						
1738	500.96	-0.99	20.95						
1739	500.91	-0.88	20.95						
1740	500.89	-0.77	20.95						
1741	500.87	-0.66	20.95						
1742	500.83	-0.54	20.95						
1743	500.84	-0.41	20.95						
1744	500.8	-0.29	20.95						
1745	500.78	-0.16	20.95						
1746	500.73	-0.04	20.95						
1747	500.7	0.08	20.95						
1748	500.67	0.19	20.95						
1749	500.63	0.28	20.95						
1750	500.65	0.38	20.95						
1751	500.61	0.47	20.95						
1752	500.59	0.56	20.95						
1753	500.55	0.65	20.95						
1754	500.52	0.74	20.95						
1755	500.5	0.83	20.95						
1756	500.45	0.92	20.95						
1757	500.47	1.02	20.95						
1758	500.44	1.11	20.95						
1759	500.42	1.2	20.95						
1760	500.38	1.3	20.95						
1761	500.35	1.39	20.95						
1762	500.33	1.48	20.95						
1763	500.28	1.58	20.95						
1764	500.3	1.67	20.95						
1765	500.26	1.76	20.95						
1766	500.24	1.85	20.95						
1767	500.21	1.94	20.95						
1768	500.17	2.03	20.95						
1769	500.16	2.12	20.95						
1770	500.11	2.2	20.95						
1771	500.12	2.29	20.95						
1772	500.1	2.39	20.95						
1773	500.08	2.48	20.95						
1774	500.06	2.58	20.95						
1775	500.01	2.68	20.95						
1776	500.01	2.78	20.95						
1777	499.96	2.89	20.95						
1778	499.97	2.99	20.95						
1779	499.96	3.1	20.95						
1780	499.92	3.21	20.95						
1781	499.91	3.31	20.95						
1782	499.86	3.42	20.95						
1783	499.85	3.52	20.95						
1784	499.81	3.62	20.95						
1785	499.82	3.71	20.95						
1786	499.81	3.81	20.95						
1787	499.77	3.9	20.95						
1788	499.76	3.99	20.95						
1789	499.71	4.08	20.95						
1790	499.7	4.16	20.95						
1791	499.65	4.24	20.95						
1792	499.66	4.32	20.95						
1793	499.65	4.39	20.95						
1794	499.61	4.46	20.95						
1795	499.6	4.53	20.95						
1796	499.55	4.6	20.95						
1797	499.54	4.67	20.95						
1798	499.51	4.74	20.95						
1799	499.51	4.81	20.95						
1800	499.51	4.88	20.95						
1801	499.47	4.96	20.95						
1802	499.45	5.05	20.95						
1803	499.42	5.13	20.95						
1804	499.39	5.22	20.95						
1805	499.37	5.31	20.95						
1806	499.36	5.4	20.95						
1807	499.36	5.48	20.96						
1808	499.32	5.57	20.96						
1809	499.3	5.64	20.96						
1810	499.26	5.71	20.96						
1811	499.24	5.78	20.96						
1812	499.22	5.84	20.96						
1813	499.2	5.89	20.96						
1814	499.2	5.94	20.96						
1815	499.17	5.99	20.96						
1816	499.15	6.04	20.96						
1817	499.12	6.1	20.96						
1818	499.09	6.16	20.96						
1819	499.08	6.22	20.96						
1820	499.06	6.29	20.96						
1821	499.07	6.37	20.96						
1822	499.04	6.45	20.96						
1823	499.02	6.53	20.96						
1824	499	6.61	20.95						
1825	498.96	6.7	20.95						
1826	498.95	6.78	20.95						
1827	498.92	6.85	20.95						
1828	498.93	6.93	20.95						
1829	498.91	7	20.95						
1830	498.88	7.07	20.95						
1831	498.86	7.14	20.95						
1832	498.83	7.21	20.95						
1833	498.82	7.27	20.95						
1834	498.79	7.34	20.95						
1835	498.8	7.41	20.95						
1836	498.79	7.48	20.95						
1837	498.76	7.55	20.95						
1838	498.74	7.63	20.95						
1839	498.7	7.7	20.95						
1840	498.69	7.77	20.95						
1841	498.66	7.84	20.95						
1842	498.67	7.91	20.95						
1843	498.66	7.97	20.95						
1844	498.62	8.03	20.95						
1845	498.62	8.1	20.95						
1846	498.58	8.16	20.95						
1847	498.57	8.22	20.95						
1848	498.55	8.29	20.95						
1849	498.55	8.36	20.95						
1850	498.55	8.43	20.95						
1851	498.51	8.5	20.95						
1852	498.5	8.57	20.95						
1853	498.46	8.64	20.95						
1854	498.45	8.71	20.95						
1855	498.43	8.78	20.96						
1856	498.43	8.85	20.96						
1857	498.43	8.92	20.96						
1858	498.38	8.98	20.96						
1859	498.37	9.04	20.96						
1860	498.34	9.09	20.96						
1861	498.32	9.13	20.96						
1862	498.31	9.18	20.96						
1863	498.3	9.22	20.96						
1864	498.3	9.27	20.96						
1865	498.27	9.32	20.96						
1866	498.26	9.37	20.96						
1867	498.22	9.42	20.96						
1868	498.21	9.48	20.96						
1869	498.2	9.54	20.96						
1870	498.19	9.6	20.96						
1871	498.2	9.67	20.96						
1872	498.16	9.74	20.96						
1873	498.16	9.81	20.96						
1874	498.14	9.89	20.96						
1875	498.12	9.97	20.96						
1876	498.12	10.06	20.96						
1877	498.11	10.15	20.95						
1878	498.12	10.25	20.95						
1879	498.09	10.35	20.95						
1880	498.07	10.45	20.95						
1881	498.05	10.55	20.95						
1882	498.02	10.64	20.96						
1883	498.01	10.71	20.95						
1884	497.99	10.78	20.95						
1885	498.01	10.83	20.95						
1886	497.98	10.87	20.95						
1887	497.95	10.91	20.95						
1888	497.95	10.95	20.95						
1889	497.92	10.99	20.95						
1890	497.91	11.03	20.95						
1891	497.91	11.08	20.95						
1892	497.92	11.14	20.95						
1893	497.9	11.21	20.95						
1894	497.87	11.28	20.95						
1895	497.87	11.35	20.95						
1896	497.83	11.43	20.95						
1897	497.82	11.49	20.95						
1898	497.81	11.56	20.95						
1899	497.82	11.61	20.95						
1900	497.8	11.66	20.95						
1901	497.77	11.71	20.95						
1902	497.77	11.75	20.95						
1903	497.74	11.79	20.95						
1904	497.73	11.83	20.95						
1905	497.73	11.87	20.95						
1906	497.73	11.91	20.95						
1907	497.72	11.95	20.95						
1908	497.69	11.99	20.96						
1909	497.69	12.04	20.96						
1910	497.65	12.09	20.96						
1911	497.65	12.14	20.96						
1912	497.65	12.19	20.96						
1913	497.65	12.24	20.96						
1914	497.65	12.29	20.96						
1915	497.61	12.34	20.96						
1916	497.61	12.39	20.96						
1917	497.58	12.44	20.96						
1918	497.56	12.48	20.96						
1919	497.57	12.53	20.96						
1920	497.56	12.57	20.96						
1921	497.56	12.61	20.96						
1922	497.52	12.64	20.96						
1923	497.52	12.68	20.96						
1924	497.49	12.71	20.96						
1925	497.48	12.74	20.96						
1926	497.48	12.78	20.96						
1927	497.47	12.8	20.96						
1928	497.48	12.84	20.96						
1929	497.44	12.87	20.96						
1930	497.44	12.9	20.96						
1931	497.41	12.94	20.96						
1932	497.4	12.98	20.96						
1933	497.41	13.03	20.96						
1934	497.4	13.07	20.96						
1935	497.41	13.12	20.96						
1936	497.37	13.18	20.96						
1937	497.37	13.23	20.96						
1938	497.35	13.29	20.96						
1939	497.33	13.34	20.96						
1940	497.34	13.39	20.96						
1941	497.33	13.45	20.96						
1942	497.34	13.5	20.96						
1943	497.31	13.56	20.96						
1944	497.3	13.62	20.96						
1945	497.28	13.67	20.96						
1946	497.25	13.72	20.96						
1947	497.27	13.77	20.96						
1948	497.25	13.81	20.96						
1949	497.26	13.84	20.96						
1950	497.23	13.87	20.96						
1951	497.21	13.89	20.96						
1952	497.21	13.91	20.96						
1953	497.18	13.93	20.96						
1954	497.19	13.95	20.96						
1955	497.18	13.98	20.96						
1956	497.19	14.01	20.96						
1957	497.17	14.05	20.96						
1958	497.16	14.09	20.96						
1959	497.16	14.14	20.96						
1960	497.13	14.19	20.96						
1961	497.14	14.25	20.96						
1962	497.14	14.32	20.96						
1963	497.14	14.39	20.96						
1964	497.14	14.46	20.96						
1965	497.1	14.53	20.96						
1966	497.11	14.6	20.96						
1967	497.07	14.67	20.96						
1968	497.07	14.73	20.96						
1969	497.07	14.79	20.96						
1970	497.07	14.84	20.96						
1971	497.06	14.88	20.96						
1972	497.02	14.9	20.96						
1973	497.02	14.92	20.96						
1974	496.99	14.92	20.96						
1975	496.98	14.92	20.96						
1976	496.99	14.91	20.96						
1977	496.98	14.89	20.96						
1978	496.98	14.87	20.96						
1979	496.94	14.86	20.96						
1980	496.95	14.86	20.96						
1981	496.93	14.86	20.96						
1982	496.92	14.87	20.96						
1983	496.94	14.9	20.96						
1984	496.94	14.94	20.96						
1985	496.94	14.98	20.96						
1986	496.9	15.04	20.96						
1987	496.91	15.1	20.96						
1988	496.89	15.16	20.96						
1989	496.87	15.22	20.96						
1990	496.89	15.27	20.96						
1991	496.87	15.32	20.96						
1992	496.88	15.37	20.96						
1993	496.84	15.41	20.96						
1994	496.84	15.44	20.96						
1995	496.82	15.47	20.96						
1996	496.8	15.5	20.96						
1997	496.83	15.52	20.96						
1998	496.81	15.54	20.96						
1999	496.82	15.56	20.96						
2000	496.79	15.59	20.96						
2001	496.78	15.61	20.96						
2002	496.77	15.64	20.96						
2003	496.74	15.66	20.96						
2004	496.77	15.68	20.96						
2005	496.75	15.7	20.96						
2006	496.75	15.71	20.96						
2007	496.72	15.72	20.96						
2008	496.71	15.74	20.96						
2009	496.7	15.76	20.96						
2010	496.67	15.78	20.96						
2011	496.7	15.8	20.96						
2012	496.68	15.83	20.96						
2013	496.68	15.86	20.96						
2014	496.67	15.89	20.96						
2015	496.65	15.92	20.96						
2016	496.65	15.95	20.96						
2017	496.61	15.97	20.96						
2018	496.64	15.99	20.96						
2019	496.63	16.01	20.96						
2020	496.63	16.03	20.96						
2021	496.61	16.05	20.96						
2022	496.59	16.07	20.96						
2023	496.59	16.09	20.96						
2024	496.56	16.12	20.96						
2025	496.58	16.15	20.96						
2026	496.58	16.19	20.96						
2027	496.58	16.22	20.96						
2028	496.57	16.27	20.96						
2029	496.55	16.31	20.96						
2030	496.55	16.36	20.96						
2031	496.52	16.41	20.96						
2032	496.53	16.45	20.96						
2033	496.53	16.49	20.96						
2034	496.53	16.54	20.96						
2035	496.52	16.58	20.96						
2036	496.49	16.61	20.96						
2037	496.49	16.65	20.96						
2038	496.46	16.67	20.96						
2039	496.47	16.69	20.96						
2040	496.48	16.71	20.96						
2041	496.47	16.72	20.96						
2042	496.47	16.73	20.96						
2043	496.43	16.74	20.96						
2044	496.44	16.75	20.96						
2045	496.41	16.76	20.96						
2046	496.41	16.78	20.96						
2047	496.43	16.81	20.96						
2048	496.42	16.84	20.96						
2049	496.43	16.87	20.96						
2050	496.4	16.91	20.96						
2051	496.4	16.96	20.96						
2052	496.39	17.01	20.96						
2053	496.38	17.06	20.96						
2054	496.41	17.11	20.96						
2055	496.39	17.16	20.96						
2056	496.39	17.21	20.96						
2057	496.37	17.25	20.96						
2058	496.37	17.28	20.96						
2059	496.35	17.32	20.96						
2060	496.33	17.34	20.96						
2061	496.34	17.36	20.96						
2062	496.28	17.36	20.96						
2063	496.23	17.34	20.96						
2064	496.11	17.25	20.96						
2065	496	17.08	20.96						
2066	495.87	16.78	20.96						
2067	495.71	16.33	20.96						
2068	495.59	15.71	20.96						
2069	495.41	14.89	20.96						
2070	495.24	13.89	20.97						
2071	495.03	12.72	20.97						
2072	494.83	11.39	20.97						
2073	494.63	9.92	20.97						
2074	494.4	8.34	20.97						
2075	494.22	6.67	20.97						
2076	493.99	4.92	20.97						
2077	493.77	3.12	20.97						
2078	493.52	1.29	20.97						
2079	493.27	-0.57	20.97						
2080	493.04	-2.44	20.97						
2081	492.77	-4.3	20.97						
2082	492.55	-6.16	20.97						
2083	492.29	-8.01	20.97						
2084	492.03	-9.83	20.97						
2085	491.76	-11.64	20.97						
2086	491.48	-13.43	20.97						
2087	491.22	-15.19	20.97						
2088	490.91	-16.94	20.97						
2089	490.67	-18.66	20.97						
2090	490.38	-20.36	20.97						
2091	490.09	-22.03	20.97						
2092	489.81	-23.68	20.97						
2093	489.49	-25.29	20.97						
2094	489.2	-26.87	20.97						
2095	488.88	-28.41	20.97						
2096	488.61	-29.92	20.97						
2097	488.31	-31.39	20.97						
2098	488	-32.82	20.97						
2099	487.7	-34.21	20.97						
2100	487.36	-35.57	20.97						
2101	487.07	-36.89	20.97						
2102	486.73	-38.18	20.97						
2103	486.44	-39.42	20.97						
2104	486.14	-40.63	20.97						
2105	485.81	-41.8	20.97						
2106	485.5	-42.94	20.97						
2107	485.15	-44.03	20.97						
2108	484.83	-45.09	20.97						
2109	484.49	-46.12	20.97						
2110	484.17	-47.12	20.97						
2111	483.87	-48.09	20.97						
2112	483.53	-49.03	20.97						
2113	483.21	-49.93	20.97						
2114	482.85	-50.81	20.97						
2115	482.52	-51.66	20.97						
2116	482.19	-52.47	20.97						
2117	481.85	-53.26	20.97						
2118	481.55	-54.01	20.97						
2119	481.2	-54.73	20.97						
2120	480.88	-55.42	20.97						
2121	480.52	-56.07	20.97						
2122	480.19	-56.69	20.97						
2123	479.86	-57.28	20.97						
2124	479.51	-57.84	20.97						
2125	479.21	-58.36	20.97						
2126	478.87	-58.86	20.97						
2127	478.54	-59.32	20.97						
2128	478.19	-59.76	20.97						
2129	477.85	-60.17	20.97						
2130	477.53	-60.55	20.97						
2131	477.16	-60.91	20.97						
2132	476.87	-61.24	20.97						
2133	476.53	-61.55	20.97						
2134	476.2	-61.84	20.97						
2135	475.86	-62.1	20.97						
2136	475.51	-62.34	20.97						
2137	475.19	-62.56	20.97						
2138	474.83	-62.76	20.97						
2139	474.54	-62.95	20.97						
2140	474.2	-63.12	20.97						
2141	473.87	-63.27	20.97						
2142	473.54	-63.4	20.97						
2143	473.2	-63.52	20.97						
2144	472.88	-63.61	20.97						
2145	472.52	-63.68	20.97						
2146	472.23	-63.74	20.97						
2147	471.9	-63.77	20.97						
2148	471.57	-63.79	20.97						
2149	471.24	-63.79	20.97						
2150	470.88	-63.79	20.97						
2151	470.57	-63.77	20.97						
2152	470.22	-63.74	20.97						
2153	469.91	-63.7	20.97						
2154	469.6	-63.65	20.97						
2155	469.27	-63.59	20.97						
2156	468.96	-63.52	20.97						
2157	468.61	-63.43	20.97						
2158	468.3	-63.33	20.97						
2159	467.96	-63.21	20.97						
2160	467.64	-63.08	20.97						
2161	467.35	-62.94	20.97						
2162	467.01	-62.79	20.97						
2163	466.7	-62.62	20.97						
2164	466.35	-62.45	20.97						
2165	466.03	-62.26	20.97						
2166	465.7	-62.07	20.97						
2167	465.37	-61.88	20.97						
2168	465.09	-61.69	20.97						
2169	464.76	-61.5	20.97						
2170	464.45	-61.32	20.97						
2171	464.1	-61.14	20.97						
2172	463.78	-60.97	20.97						
2173	463.46	-60.8	20.97						
2174	463.12	-60.63	20.97						
2175	462.84	-60.46	20.97						
2176	462.5	-60.28	20.97						
2177	462.19	-60.1	20.97						
2178	461.85	-59.92	20.97						
2179	461.53	-59.74	20.97						
2180	461.22	-59.56	20.97						
2181	460.87	-59.38	20.97						
2182	460.59	-59.19	20.97						
2183	460.27	-59	20.97						
2184	459.96	-58.81	20.97						
2185	459.63	-58.6	20.97						
2186	459.31	-58.4	20.97						
2187	459	-58.19	20.97						
2188	458.65	-57.98	20.97						
2189	458.37	-57.77	20.97						
2190	458.06	-57.57	20.97						
2191	457.75	-57.36	20.97						
2192	457.44	-57.15	20.97						
2193	457.1	-56.95	20.97						
2194	456.8	-56.74	20.97						
2195	456.46	-56.52	20.97						
2196	456.17	-56.3	20.97						
2197	455.87	-56.08	20.97						
2198	455.55	-55.86	20.97						
2199	455.25	-55.63	20.97						
2200	454.91	-55.4	20.97						
2201	454.6	-55.17	20.97						
2202	454.28	-54.93	20.97						
2203	453.97	-54.68	20.97						
2204	453.68	-54.43	20.97						
2205	453.37	-54.16	20.97						
2206	453.07	-53.9	20.97						
2207	452.73	-53.64	20.97						
2208	452.44	-53.38	20.97						
2209	452.11	-53.12	20.97						
2210	451.8	-52.88	20.97						
2211	451.52	-52.63	20.97						
2212	451.2	-52.4	20.97						
2213	450.91	-52.17	20.97						
2214	450.58	-51.95	20.97						
2215	450.28	-51.73	20.97						
2216	449.96	-51.52	20.97						
2217	449.64	-51.32	20.97						
2218	449.36	-51.12	20.97						
2219	449.05	-50.92	20.97						
2220	448.77	-50.72	20.97						
2221	448.45	-50.53	20.97						
2222	448.14	-50.34	20.97						
2223	447.83	-50.14	20.97						
2224	447.51	-49.95	20.97						
2225	447.23	-49.76	20.97						
2226	446.92	-49.58	20.97						
2227	446.63	-49.4	20.97						
2228	446.31	-49.23	20.97						
2229	446	-49.06	20.97						
2230	445.7	-48.9	20.97						
2231	445.37	-48.75	20.97						
2232	445.08	-48.6	20.97						
2233	444.78	-48.45	20.97						
2234	444.49	-48.31	20.97						
2235	444.19	-48.16	20.97						
2236	443.86	-48.02	20.97						
2237	443.57	-47.88	20.97						
2238	443.25	-47.75	20.97						
2239	442.95	-47.62	20.97						
2240	442.66	-47.49	20.97						
2241	442.37	-47.36	20.97						
2242	442.08	-47.23	20.97						
2243	441.75	-47.1	20.97						
2244	441.46	-46.97	20.97						
2245	441.14	-46.83	20.97						
2246	440.84	-46.7	20.97						
2247	440.55	-46.56	20.97						
2248	440.26	-46.43	20.97						
2249	439.97	-46.29	20.97						
2250	439.64	-46.17	20.97						
2251	439.36	-46.05	20.97						
2252	439.03	-45.93	20.97						
2253	438.73	-45.82	20.97						
2254	438.44	-45.72	20.97						
2255	438.14	-45.62	20.97						
2256	437.86	-45.53	20.98						
2257	437.53	-45.44	20.98						
2258	437.24	-45.36	20.98						
2259	436.91	-45.28	20.98						
2260	436.61	-45.21	20.98						
2261	436.31	-45.14	20.98						
2262	436.02	-45.08	20.98						
2263	435.74	-45.03	20.98						
2264	435.42	-44.98	20.98						
2265	435.11	-44.93	20.98						
2266	434.81	-44.88	20.98						
2267	434.5	-44.82	20.98						
2268	434.21	-44.77	20.98						
2269	433.9	-44.7	20.98						
2270	433.63	-44.64	20.98						
2271	433.32	-44.57	20.98						
2272	433.02	-44.49	20.98						
2273	432.72	-44.42	20.98						
2274	432.4	-44.34	20.98						
2275	432.11	-44.26	20.98						
2276	431.8	-44.19	20.98						
2277	431.52	-44.12	20.98						
2278	431.21	-44.05	20.98						
2279	430.9	-43.99	20.98						
2280	430.6	-43.94	20.98						
2281	430.27	-43.9	20.98						
2282	429.98	-43.86	20.98						
2283	429.66	-43.83	20.98						
2284	429.39	-43.8	20.98						
2285	429.1	-43.78	20.98						
2286	428.78	-43.77	20.98						
2287	428.48	-43.75	20.98						
2288	428.16	-43.73	20.98						
2289	427.86	-43.72	20.98						
2290	427.55	-43.71	20.98						
2291	427.27	-43.69	20.98						
2292	426.98	-43.67	20.98						
2293	426.66	-43.65	20.98						
2294	426.37	-43.62	20.98						
2295	426.05	-43.6	20.98						
2296	425.75	-43.58	20.98						
2297	425.44	-43.57	20.98						
2298	425.15	-43.55	20.98						
2299	424.87	-43.54	20.98						
2300	424.55	-43.54	20.98						
2301	424.26	-43.53	20.98						
2302	423.93	-43.53	20.98						
2303	423.63	-43.53	20.98						
2304	423.33	-43.53	20.98						
2305	423.02	-43.53	20.98						
2306	422.75	-43.54	20.98						
2307	422.44	-43.54	20.98						
2308	422.14	-43.54	20.98						
2309	421.82	-43.54	20.98						
2310	421.51	-43.55	20.98						
2311	421.22	-43.55	20.98						
2312	420.89	-43.56	20.98						
2313	420.63	-43.58	20.98						
2314	420.32	-43.59	20.98						
2315	420.03	-43.6	20.98						
2316	419.71	-43.61	20.98						
2317	419.4	-43.63	20.98						
2318	419.11	-43.64	20.98						
2319	418.77	-43.65	20.98						
2320	418.51	-43.66	20.98						
2321	418.21	-43.67	20.98						
2322	417.91	-43.68	20.98						
2323	417.61	-43.69	20.98						
2324	417.28	-43.7	20.98						
2325	417	-43.72	20.98						
2326	416.67	-43.72	20.98						
2327	416.4	-43.73	20.98						
2328	416.13	-43.72	20.98						
2329	415.84	-43.67	20.98						
2330	415.55	-43.58	20.98						
2331	415.22	-43.45	20.98						
2332	414.92	-43.29	20.98						
2333	414.61	-43.11	20.98						
2334	414.3	-42.93	20.98						
2335	414.02	-42.77	20.99						
2336	413.71	-42.64	20.98						
2337	413.42	-42.56	20.99						
2338	413.08	-42.53	20.99						
2339	412.78	-42.52	20.99						
2340	412.47	-42.54	20.99						
2341	412.15	-42.59	20.99						
2342	411.88	-42.64	20.99						
2343	411.56	-42.71	20.99						
2344	411.28	-42.79	20.99						
2345	410.94	-42.87	20.99						
2346	410.64	-42.96	20.99						
2347	410.33	-43.05	20.99						
2348	410	-43.15	20.99						
2349	409.73	-43.25	20.99						
2350	409.42	-43.34	20.99						
2351	409.13	-43.44	20.99						
2352	408.81	-43.53	20.99						
2353	408.5	-43.61	20.99						
2354	408.2	-43.69	20.99						
2355	407.87	-43.77	20.99						
2356	407.58	-43.85	20.99						
2357	407.28	-43.92	20.99						
2358	406.99	-44	20.99						
2359	406.68	-44.06	20.99						
2360	406.35	-44.13	20.99						
2361	406.06	-44.21	20.99						
2362	405.73	-44.28	20.99						
2363	405.44	-44.35	20.99						
2364	405.14	-44.42	20.99						
2365	404.85	-44.48	20.99						
2366	404.56	-44.55	20.99						
2367	404.22	-44.6	20.99						
2368	403.93	-44.66	20.99						
2369	403.61	-44.7	20.99						
2370	403.3	-44.75	20.99						
2371	403.01	-44.8	20.99						
2372	402.71	-44.84	20.99						
2373	402.43	-44.89	20.99						
2374	402.09	-44.94	20.99						
2375	401.79	-45	20.99						
2376	401.47	-45.06	20.99						
2377	401.16	-45.12	20.99						
2378	400.85	-45.19	20.99						
2379	400.55	-45.27	20.99						
2380	400.27	-45.35	20.99						
2381	399.93	-45.43	20.99						
2382	399.62	-45.51	20.99						
2383	399.31	-45.6	20.99						
2384	398.99	-45.69	20.99						
2385	398.69	-45.78	20.99						
2386	398.39	-45.88	20.99						
2387	398.1	-45.97	20.99						
2388	397.78	-46.05	20.99						
2389	397.46	-46.14	20.99						
2390	397.15	-46.22	20.99						
2391	396.83	-46.31	20.99						
2392	396.53	-46.39	20.99						
2393	396.21	-46.47	20.99						
2394	395.93	-46.55	20.99						
2395	395.61	-46.63	20.99						
2396	395.3	-46.7	20.99						
2397	394.99	-46.78	20.99						
2398	394.66	-46.85	20.99						
2399	394.37	-46.92	20.99						
2400	394.04	-46.99	20.99						
2401	393.76	-47.06	20.99						
2402	393.46	-47.12	20.99						
2403	393.13	-47.19	20.99						
2404	392.82	-47.25	20.99						
2405	392.49	-47.32	20.99						
2406	392.19	-47.39	20.99						
2407	391.86	-47.46	20.99						
2408	391.57	-47.54	20.99						
2409	391.28	-47.61	20.99						
2410	390.95	-47.69	20.99						
2411	390.65	-47.76	20.99						
2412	390.32	-47.83	20.99						
2413	390.01	-47.91	20.99						
2414	389.69	-47.98	20.99						
2415	389.39	-48.05	20.99						
2416	389.11	-48.11	20.99						
2417	388.78	-48.17	20.99						
2418	388.48	-48.23	20.99						
2419	388.15	-48.28	20.99						
2420	387.84	-48.34	20.99						
2421	387.53	-48.39	20.99						
2422	387.21	-48.44	20.99						
2423	386.93	-48.49	20.99						
2424	386.6	-48.55	20.99						
2425	386.3	-48.61	20.99						
2426	385.97	-48.67	20.99						
2427	385.65	-48.73	20.99						
2428	385.35	-48.8	20.99						
2429	385.01	-48.87	20.99						
2430	384.73	-48.94	20.99						
2431	384.41	-49.01	20.99						
2432	384.1	-49.08	20.99						
2433	383.78	-49.15	20.99						
2434	383.45	-49.22	20.99						
2435	383.16	-49.29	20.99						
2436	382.81	-49.35	20.99						
2437	382.53	-49.42	20.99						
2438	382.22	-49.48	20.99						
2439	381.91	-49.55	20.99						
2440	381.6	-49.61	20.99						
2441	381.26	-49.67	20.99						
2442	380.96	-49.74	20.99						
2443	380.62	-49.8	20.99						
2444	380.32	-49.87	20.99						
2445	380.03	-49.93	20.99						
2446	379.7	-49.99	20.99						
2447	379.41	-50.05	20.99						
2448	379.06	-50.12	20.99						
2449	378.76	-50.18	20.99						
2450	378.43	-50.24	20.99						
2451	378.11	-50.3	20.99						
2452	377.83	-50.35	20.99						
2453	377.51	-50.4	20.99						
2454	377.21	-50.45	20.99						
2455	376.87	-50.5	20.99						
2456	376.56	-50.56	20.99						
2457	376.24	-50.61	20.99						
2458	375.91	-50.66	20.99						
2459	375.62	-50.72	20.99						
2460	375.29	-50.78	20.99						
2461	375	-50.85	20.99						
2462	374.66	-50.92	20.99						
2463	374.34	-50.98	20.99						
2464	374.03	-51.05	20.99						
2465	373.69	-51.12	20.99						
2466	373.39	-51.18	20.99						
2467	373.08	-51.24	20.99						
2468	372.78	-51.3	20.99						
2469	372.46	-51.35	20.99						
2470	372.12	-51.4	20.99						
2471	371.82	-51.45	20.99						
2472	371.48	-51.51	20.99						
2473	371.17	-51.56	20.99						
2474	370.87	-51.62	20.99						
2475	370.56	-51.67	20.99						
2476	370.25	-51.73	20.99						
2477	369.91	-51.79	20.99						
2478	369.61	-51.85	20.99						
2479	369.27	-51.9	20.99						
2480	368.95	-51.96	20.99						
2481	368.65	-52.01	20.99						
2482	368.34	-52.07	20.99						
2483	368.04	-52.12	20.99						
2484	367.7	-52.18	20.99						
2485	367.38	-52.23	20.99						
2486	367.05	-52.29	20.99						
2487	366.73	-52.34	20.99						
2488	366.42	-52.4	20.99						
2489	366.1	-52.45	20.99						
2490	365.81	-52.51	20.99						
2491	365.47	-52.56	20.99						
2492	365.15	-52.62	20.99						
2493	364.82	-52.67	20.99						
2494	364.5	-52.73	20.99						
2495	364.18	-52.79	20.99						
2496	363.86	-52.85	20.99						
2497	363.57	-52.9	20.99						
2498	363.24	-52.96	20.99						
2499	362.91	-53.01	20.99						
2500	362.59	-53.07	20.99						
2501	362.26	-53.12	20.99						
2502	361.95	-53.17	20.99						
2503	361.62	-53.22	20.99						
2504	361.33	-53.28	20.99						
2505	361.01	-53.32	20.99						
2506	360.68	-53.37	20.99						
2507	360.37	-53.42	20.99						
2508	360.02	-53.46	20.99						
2509	359.72	-53.51	20.99						
2510	359.38	-53.55	20.99						
2511	359.09	-53.6	20.99						
2512	358.78	-53.64	20.99						
2513	358.45	-53.69	20.99						
2514	358.13	-53.74	20.99						
2515	357.79	-53.79	20.99						
2516	357.48	-53.84	20.99						
2517	357.14	-53.89	20.99						
2518	356.84	-53.94	20.99						
2519	356.54	-53.98	20.99						
2520	356.21	-54.03	20.99						
2521	355.89	-54.07	20.99						
2522	355.55	-54.12	20.99						
2523	355.24	-54.16	20.99						
2524	354.9	-54.2	20.99						
2525	354.59	-54.24	20.99						
2526	354.3	-54.28	20.99						
2527	353.96	-54.32	20.99						
2528	353.65	-54.36	20.99						
2529	353.3	-54.4	20.99						
2530	352.98	-54.45	20.99						
2531	352.66	-54.49	20.99						
2532	352.32	-54.54	20.99						
2533	352.04	-54.6	20.99						
2534	351.7	-54.65	20.99						
2535	351.39	-54.7	20.99						
2536	351.06	-54.75	20.99						
2537	350.72	-54.8	20.99						
2538	350.41	-54.85	20.99						
2539	350.06	-54.89	20.99						
2540	349.78	-54.94	20.99						
2541	349.45	-54.98	20.99						
2542	349.13	-55.02	20.99						
2543	348.81	-55.06	20.99						
2544	348.46	-55.1	20.99						
2545	348.16	-55.15	20.99						
2546	347.81	-55.19	20.99						
2547	347.51	-55.23	20.99						
2548	347.2	-55.26	20.99						
2549	346.88	-55.3	20.99						
2550	346.57	-55.34	20.99						
2551	346.21	-55.38	20.99						
2552	345.9	-55.41	20.99						
2553	345.56	-55.45	20.99						
2554	345.24	-55.5	20.99						
2555	344.94	-55.54	20.99						
2556	344.62	-55.58	20.99						
2557	344.3	-55.63	20.99						
2558	343.94	-55.67	20.99						
2559	343.63	-55.72	20.99						
2560	343.29	-55.76	20.99						
2561	342.96	-55.81	20.99						
2562	342.67	-55.85	20.99						
2563	342.34	-55.89	20.99						
2564	342.04	-55.94	20.99						
2565	341.69	-55.98	20.99						
2566	341.37	-56.02	20.99						
2567	341.04	-56.05	20.99						
2568	340.7	-56.09	20.99						
2569	340.4	-56.13	20.99						
2570	340.07	-56.17	20.99						
2571	339.77	-56.2	20.99						
2572	339.43	-56.24	20.99						
2573	339.1	-56.28	20.99						
2574	338.79	-56.31	20.99						
2575	338.44	-56.35	20.99						
2576	338.12	-56.38	20.99						
2577	337.8	-56.42	20.99						
2578	337.5	-56.46	20.99						
2579	337.17	-56.49	20.99						
2580	336.82	-56.53	20.99						
2581	336.51	-56.57	20.99						
2582	336.16	-56.6	20.99						
2583	335.84	-56.64	20.99						
2584	335.52	-56.68	20.99						
2585	335.21	-56.71	20.99						
2586	334.9	-56.75	20.99						
2587	334.56	-56.78	20.99						
2588	334.24	-56.82	20.99						
2589	333.89	-56.85	20.99						
2590	333.57	-56.88	20.99						
2591	333.25	-56.91	20.99						
2592	332.93	-56.94	20.99						
2593	332.63	-56.97	20.99						
2594	332.28	-56.99	20.99						
2595	331.96	-57.01	20.99						
2596	331.62	-57.03	20.99						
2597	331.3	-57.06	20.99						
2598	330.97	-57.08	20.99						
2599	330.65	-57.1	20.99						
2600	330.35	-57.13	20.99						
2601	330.01	-57.16	20.99						
2602	329.69	-57.19	20.99						
2603	329.35	-57.22	20.99						
2604	329.02	-57.26	20.99						
2605	328.7	-57.29	20.99						
2606	328.36	-57.33	20.99						
2607	328.07	-57.36	20.99						
2608	327.74	-57.39	20.99						
2609	327.41	-57.42	20.99						
2610	327.08	-57.45	20.99						
2611	326.74	-57.48	20.99						
2612	326.43	-57.51	20.99						
2613	326.08	-57.54	20.99						
2614	325.79	-57.56	20.99						
2615	325.47	-57.58	20.99						
2616	325.13	-57.6	20.99						
2617	324.81	-57.62	20.99						
2618	324.47	-57.64	20.99						
2619	324.15	-57.65	20.99						
2620	323.8	-57.67	20.99						
2621	323.51	-57.69	20.99						
2622	323.19	-57.7	20.99						
2623	322.85	-57.73	20.99						
2624	322.54	-57.75	20.99						
2625	322.18	-57.78	20.99						
2626	321.86	-57.81	20.99						
2627	321.52	-57.85	20.99						
2628	321.2	-57.88	20.99						
2629	320.9	-57.92	20.99						
2630	320.56	-57.96	20.99						
2631	320.25	-57.99	20.99						
2632	319.89	-58.03	20.99						
2633	319.57	-58.06	20.99						
2634	319.24	-58.1	20.99						
2635	318.9	-58.13	20.99						
2636	318.61	-58.16	20.99						
2637	318.28	-58.19	20.99						
2638	317.96	-58.22	20.99						
2639	317.61	-58.25	20.99						
2640	317.28	-58.28	20.99						
2641	316.96	-58.3	20.99						
2642	316.59	-58.33	20.99						
2643	316.31	-58.36	20.99						
2644	315.98	-58.39	20.99						
2645	315.66	-58.42	20.99						
2646	315.32	-58.44	20.99						
2647	314.98	-58.47	20.99						
2648	314.66	-58.5	20.99						
2649	314.3	-58.52	20.99						
2650	314	-58.55	20.99						
2651	313.68	-58.57	20.99						
2652	313.36	-58.59	20.99						
2653	313.04	-58.61	20.99						
2654	312.68	-58.63	20.99						
2655	312.37	-58.65	20.99						
2656	312.02	-58.66	20.99						
2657	311.7	-58.68	20.99						
2658	311.39	-58.7	20.99						
2659	311.06	-58.71	20.99						
2660	310.75	-58.73	20.99						
2661	310.39	-58.74	20.99						
2662	310.07	-58.76	20.99						
2663	309.73	-58.78	20.99						
2664	309.4	-58.79	20.99						
2665	309.09	-58.81	20.99						
2666	308.76	-58.83	20.99						
2667	308.46	-58.85	20.99						
2668	308.11	-58.87	20.99						
2669	307.78	-58.89	20.99						
2670	307.44	-58.91	20.99						
2671	307.11	-58.93	20.99						
2672	306.79	-58.95	20.99						
2673	306.47	-58.97	20.99						
2674	306.16	-58.98	20.99						
2675	305.81	-59	20.99						
2676	305.47	-59.02	20.99						
2677	305.15	-59.04	20.99						
2678	304.8	-59.05	20.99						
2679	304.48	-59.07	20.99						
2680	304.16	-59.09	20.99						
2681	303.85	-59.11	20.99						
2682	303.51	-59.13	20.99						
2683	303.17	-59.15	20.99						
2684	302.85	-59.17	20.99						
2685	302.5	-59.19	20.99						
2686	302.18	-59.21	20.99						
2687	301.84	-59.24	20.99						
2688	301.53	-59.26	20.99						
2689	301.21	-59.28	20.99						
2690	300.87	-59.3	20.99						
2691	300.55	-59.32	20.99						
2692	300.19	-59.34	20.99						
2693	299.88	-59.36	20.99						
2694	299.54	-59.38	20.99						
2695	299.23	-59.41	20.99						
2696	298.92	-59.42	20.99						
2697	298.57	-59.44	20.99						
2698	298.25	-59.46	20.99						
2699	297.91	-59.47	20.99						
2700	297.58	-59.48	20.99						
2701	297.24	-59.48	20.99						
2702	296.92	-59.49	20.99						
2703	296.62	-59.5	20.99						
2704	296.27	-59.51	20.99						
2705	295.94	-59.51	20.99						
2706	295.6	-59.52	20.99						
2707	295.26	-59.54	20.99						
2708	294.94	-59.55	20.99						
2709	294.6	-59.56	20.99						
2710	294.31	-59.58	20.99						
2711	293.96	-59.59	20.99						
2712	293.64	-59.6	20.99						
2713	293.29	-59.62	20.99						
2714	292.96	-59.63	20.99						
2715	292.64	-59.64	20.99						
2716	292.29	-59.66	20.99						
2717	292	-59.67	20.99						
2718	291.66	-59.68	20.99						
2719	291.33	-59.7	20.99						
2720	291	-59.71	20.99						
2721	290.65	-59.72	20.99						
2722	290.33	-59.74	20.99						
2723	289.98	-59.75	20.99						
2724	289.67	-59.77	20.99						
2725	289.36	-59.79	20.99						
2726	289.03	-59.81	20.99						
2727	288.7	-59.82	20.99						
2728	288.35	-59.84	20.99						
2729	288.03	-59.86	20.99						
2730	287.68	-59.87	20.99						
2731	287.36	-59.89	20.99						
2732	287.05	-59.9	20.99						
2733	286.72	-59.92	20.99						
2734	286.4	-59.93	20.99						
2735	286.04	-59.94	20.99						
2736	285.72	-59.96	20.99						
2737	285.38	-59.97	20.99						
2738	285.03	-59.98	20.99						
2739	284.73	-60	20.99						
2740	284.39	-60.01	20.99						
2741	284.08	-60.03	20.99						
2742	283.72	-60.05	20.99						
2743	283.39	-60.07	20.99						
2744	283.06	-60.09	20.99						
2745	282.71	-60.11	20.99						
2746	282.41	-60.13	20.99						
2747	282.07	-60.14	20.99						
2748	281.76	-60.16	20.99						
2749	281.42	-60.18	20.99						
2750	281.07	-60.2	20.99						
2751	280.75	-60.21	20.99						
2752	280.4	-60.23	20.99						
2753	280.08	-60.24	20.99						
2754	279.76	-60.26	20.99						
2755	279.44	-60.27	20.99						
2756	279.11	-60.29	20.99						
2757	278.76	-60.3	20.99						
2758	278.44	-60.32	20.99						
2759	278.09	-60.34	20.99						
2760	277.76	-60.36	20.99						
2761	277.44	-60.38	20.99						
2762	277.12	-60.4	20.99						
2763	276.8	-60.42	20.99						
2764	276.45	-60.43	20.99						
2765	276.12	-60.45	20.99						
2766	275.77	-60.47	20.99						
2767	275.44	-60.49	20.99						
2768	275.12	-60.5	20.99						
2769	274.8	-60.52	20.99						
2770	274.49	-60.54	20.99						
2771	274.13	-60.55	20.99						
2772	273.81	-60.57	20.99						
2773	273.46	-60.58	20.99						
2774	273.13	-60.6	20.99						
2775	272.8	-60.61	20.99						
2776	272.47	-60.63	20.99						
2777	272.17	-60.65	20.99						
2778	271.82	-60.67	20.98						
2779	271.49	-60.69	20.99						
2780	271.15	-60.7	20.98						
2781	270.81	-60.72	20.99						
2782	270.48	-60.74	20.99						
2783	270.15	-60.75	20.99						
2784	269.85	-60.76	20.99						
2785	269.51	-60.77	20.99						
2786	269.18	-60.78	20.99						
2787	268.85	-60.79	20.99						
2788	268.49	-60.8	20.99						
2789	268.18	-60.81	20.99						
2790	267.83	-60.82	20.99						
2791	267.53	-60.83	20.99						
2792	267.2	-60.84	20.99						
2793	266.86	-60.85	20.99						
2794	266.53	-60.85	20.98						
2795	266.17	-60.86	20.98						
2796	265.86	-60.87	20.98						
2797	265.51	-60.87	20.98						
2798	265.2	-60.88	20.98						
2799	264.88	-60.88	20.98						
2800	264.54	-60.89	20.98						
2801	264.22	-60.9	20.98						
2802	263.86	-60.91	20.98						
2803	263.54	-60.92	20.98						
2804	263.2	-60.94	20.98						
2805	262.88	-60.95	20.98						
2806	262.57	-60.97	20.98						
2807	262.23	-60.99	20.98						
2808	261.91	-61.01	20.98						
2809	261.55	-61.03	20.98						
2810	261.23	-61.04	20.98						
2811	260.9	-61.05	20.98						
2812	260.55	-61.06	20.98						
2813	260.26	-61.07	20.98						
2814	259.92	-61.08	20.98						
2815	259.6	-61.09	20.98						
2816	259.25	-61.1	20.98						
2817	258.91	-61.11	20.98						
2818	258.59	-61.11	20.98						
2819	258.23	-61.12	20.98						
2820	257.94	-61.13	20.98						
2821	257.61	-61.13	20.98						
2822	257.29	-61.14	20.98						
2823	256.95	-61.14	20.98						
2824	256.6	-61.14	20.98						
2825	256.28	-61.14	20.98						
2826	255.92	-61.14	20.98						
2827	255.62	-61.13	20.98						
2828	255.29	-61.13	20.98						
2829	254.97	-61.12	20.98						
2830	254.64	-61.11	20.98						
2831	254.28	-61.1	20.98						
2832	253.97	-61.09	20.98						
2833	253.61	-61.08	20.98						
2834	253.29	-61.07	20.98						
2835	252.98	-61.06	20.98						
2836	252.65	-61.06	20.98						
2837	252.33	-61.05	20.98						
2838	251.96	-61.05	20.98						
2839	251.65	-61.04	20.98						
2840	251.3	-61.04	20.98						
2841	250.97	-61.04	20.98						
2842	250.66	-61.03	20.98						
2843	250.33	-61.03	20.98						
2844	250.02	-61.03	20.98						
2845	249.66	-61.03	20.98						
2846	249.34	-61.03	20.98						
2847	249	-61.04	20.98						
2848	248.66	-61.04	20.98						
2849	248.34	-61.04	20.98						
2850	248.01	-61.04	20.98						
2851	247.71	-61.04	20.98						
2852	247.36	-61.04	20.98						
2853	247.02	-61.05	20.98						
2854	246.69	-61.04	20.98						
2855	246.35	-61.04	20.98						
2856	246.02	-61.04	20.98						
2857	245.7	-61.04	20.98						
2858	245.39	-61.04	20.98						
2859	245.05	-61.04	20.98						
2860	244.71	-61.04	20.98						
2861	244.39	-61.04	20.98						
2862	244.03	-61.04	20.98						
2863	243.72	-61.04	20.98						
2864	243.38	-61.05	20.98						
2865	243.08	-61.05	20.98						
2866	242.75	-61.05	20.98						
2867	242.4	-61.06	20.98						
2868	242.08	-61.07	20.98						
2869	241.72	-61.07	20.98						
2870	241.4	-61.09	20.98						
2871	241.06	-61.1	20.98						
2872	240.75	-61.11	20.98						
2873	240.44	-61.13	20.98						
2874	240.08	-61.14	20.98						
2875	239.76	-61.16	20.98						
2876	239.41	-61.18	20.98						
2877	239.08	-61.19	20.98						
2878	238.75	-61.21	20.98						
2879	238.43	-61.23	20.98						
2880	238.12	-61.25	20.98						
2881	237.76	-61.28	20.98						
2882	237.44	-61.31	20.98						
2883	237.09	-61.33	20.98						
2884	236.76	-61.36	20.98						
2885	236.43	-61.39	20.98						
2886	236.09	-61.41	20.98						
2887	235.79	-61.44	20.98						
2888	235.44	-61.45	20.98						
2889	235.11	-61.47	20.98						
2890	234.76	-61.48	20.98						
2891	234.42	-61.5	20.98						
2892	234.1	-61.51	20.98						
2893	233.74	-61.53	20.98						
2894	233.45	-61.55	20.98						
2895	233.11	-61.57	20.98						
2896	232.79	-61.59	20.98						
2897	232.45	-61.6	20.98						
2898	232.1	-61.62	20.98						
2899	231.79	-61.63	20.98						
2900	231.43	-61.63	20.98						
2901	231.12	-61.64	20.98						
2902	230.8	-61.65	20.98						
2903	230.46	-61.66	20.98						
2904	230.14	-61.67	20.98						
2905	229.78	-61.69	20.98						
2906	229.45	-61.71	20.98						
2907	229.11	-61.73	20.98						
2908	228.79	-61.74	20.98						
2909	228.48	-61.76	20.98						
2910	228.15	-61.77	20.98						
2911	227.83	-61.78	20.98						
2912	227.46	-61.79	20.98						
2913	227.14	-61.79	20.98						
2914	226.79	-61.8	20.98						
2915	226.45	-61.81	20.98						
2916	226.15	-61.82	20.98						
2917	225.81	-61.83	20.98						
2918	225.5	-61.85	20.98						
2919	225.14	-61.85	20.98						
2920	224.82	-61.86	20.98						
2921	224.48	-61.86	20.98						
2922	224.13	-61.86	20.98						
2923	223.84	-61.85	20.98						
2924	223.5	-61.84	20.98						
2925	223.18	-61.83	20.98						
2926	222.83	-61.82	20.98						
2927	222.49	-61.81	20.98						
2928	222.17	-61.81	20.98						
2929	221.81	-61.81	20.98						
2930	221.5	-61.81	20.98						
2931	221.18	-61.81	20.98						
2932	220.87	-61.81	20.98						
2933	220.54	-61.8	20.98						
2934	220.19	-61.8	20.98						
2935	219.87	-61.79	20.98						
2936	219.51	-61.78	20.98						
2937	219.19	-61.77	20.98						
2938	218.87	-61.77	20.98						
2939	218.55	-61.76	20.98						
2940	218.23	-61.76	20.98						
2941	217.87	-61.76	20.98						
2942	217.56	-61.76	20.98						
2943	217.2	-61.75	20.98						
2944	216.88	-61.73	20.98						
2945	216.56	-61.71	20.98						
2946	216.24	-61.69	20.98						
2947	215.92	-61.66	20.98						
2948	215.56	-61.63	20.98						
2949	215.24	-61.61	20.98						
2950	214.89	-61.59	20.98						
2951	214.56	-61.59	20.98						
2952	214.23	-61.59	20.98						
2953	213.92	-61.59	20.98						
2954	213.62	-61.59	20.98						
2955	213.26	-61.59	20.98						
2956	212.94	-61.58	20.98						
2957	212.6	-61.57	20.97						
2958	212.26	-61.56	20.97						
2959	211.93	-61.55	20.97						
2960	211.6	-61.54	20.97						
2961	211.3	-61.55	20.97						
2962	210.96	-61.55	20.97						
2963	210.63	-61.56	20.97						
2964	210.3	-61.57	20.97						
2965	209.95	-61.58	20.97						
2966	209.64	-61.59	20.97						
2967	209.29	-61.59	20.97						
2968	209	-61.6	20.97						
2969	208.67	-61.6	20.97						
2970	208.34	-61.6	20.97						
2971	208	-61.6	20.97						
2972	207.65	-61.6	20.97						
2973	207.33	-61.61	20.97						
2974	206.97	-61.61	20.97						
2975	206.68	-61.62	20.97						
2976	206.36	-61.62	20.97						
2977	206.02	-61.62	20.97						
2978	205.7	-61.62	20.97						
2979	205.34	-61.61	20.97						
2980	205.12	-61.61	20.97						
2981	205.8	-61.31	20.97						
2982	206.48	-59.6	20.97						
2983	206.83	-55.67	20.97						
2984	206.92	-49.22	20.97						
2985	206.89	-40.22	20.97						
2986	206.69	-28.85	20.97						
2987	206.44	-15.5	20.97						
2988	206.12	-1.29	20.97						
2989	205.76	12.41	20.97						
2990	205.42	24.83	20.97						
2991	205.01	35.57	20.97						
2992	204.61	44.51	20.97						
2993	204.16	51.67	20.97						
2994	203.73	57.17	20.97						
2995	203.3	61.15	20.97						
2996	202.85	63.81	20.97						
2997	202.45	65.32	20.97						
2998	202.01	65.83	20.97						
2999	201.6	65.52	20.97						
3000	201.15	64.51	20.97						
3001	200.73	62.95	20.97						
3002	200.32	60.93	20.97						
3003	199.88	58.56	20.97						
3004	199.51	55.93	20.97						
3005	199.1	53.09	20.97						
3006	198.71	50.11	20.97						
3007	198.3	47.04	20.97						
3008	197.88	43.91	20.97						
3009	197.5	40.76	20.97						
3010	197.07	37.61	20.97						
3011	196.69	34.49	20.97						
3012	196.31	31.4	20.97						
3013	195.93	28.36	20.97						
3014	195.55	25.39	20.97						
3015	195.14	22.49	20.97						
3016	194.78	19.66	20.97						
3017	194.38	16.92	20.97						
3018	194.01	14.27	20.97						
3019	193.66	11.71	20.97						
3020	193.28	9.25	20.97						
3021	192.94	6.87	20.97						
3022	192.54	4.59	20.97						
3023	192.18	2.38	20.97						
3024	191.8	0.26	20.97						
3025	191.44	-1.78	20.97						
3026	191.09	-3.75	20.97						
3027	190.73	-5.64	20.97						
3028	190.4	-7.46	20.97						
3029	190.01	-9.22	20.97						
3030	189.66	-10.92	20.97						
3031	189.29	-12.55	20.97						
3032	188.93	-14.12	20.97						
3033	188.58	-15.64	20.97						
3034	188.23	-17.1	20.97						
3035	187.9	-18.51	20.97						
3036	187.53	-19.87	20.97						
3037	187.17	-21.18	20.97						
3038	186.82	-22.45	20.97						
3039	186.45	-23.68	20.97						
3040	186.11	-24.86	20.97						
3041	185.76	-26	20.97						
3042	185.44	-27.1	20.97						
3043	185.08	-28.17	20.97						
3044	184.73	-29.2	20.97						
3045	184.39	-30.19	20.97						
3046	184.02	-31.14	20.97						
3047	183.69	-32.07	20.97						
3048	183.33	-32.95	20.97						
3049	183.02	-33.81	20.97						
3050	182.68	-34.64	20.97						
3051	182.33	-35.44	20.97						
3052	182	-36.2	20.97						
3053	181.63	-36.95	20.97						
3054	181.31	-37.66	20.97						
3055	180.95	-38.35	20.97						
3056	180.65	-39.01	20.97						
3057	180.33	-39.65	20.97						
3058	179.98	-40.26	20.97						
3059	179.65	-40.84	20.97						
3060	179.29	-41.41	20.97						
3061	178.97	-41.95	20.97						
3062	178.62	-42.47	20.97						
3063	178.3	-42.97	20.97						
3064	178	-43.45	20.97						
3065	177.65	-43.91	20.97						
3066	177.33	-44.34	20.97						
3067	176.99	-44.76	20.97						
3068	176.66	-45.16	20.97						
3069	176.33	-45.52	20.97						
3070	176	-45.86	20.97						
3071	175.72	-46.16	20.97						
3072	175.37	-46.44	20.97						
3073	175.07	-46.68	20.97						
3074	174.72	-46.9	20.96						
3075	174.39	-47.1	20.97						
3076	174.08	-47.29	20.96						
3077	173.73	-47.46	20.96						
3078	173.46	-47.63	20.96						
3079	173.13	-47.79	20.96						
3080	172.82	-47.94	20.96						
3081	172.49	-48.08	20.96						
3082	172.16	-48.2	20.96						
3083	171.86	-48.31	20.96						
3084	171.51	-48.41	20.96						
3085	171.24	-48.5	20.96						
3086	170.93	-48.57	20.96						
3087	170.63	-48.63	20.96						
3088	170.31	-48.67	20.96						
3089	169.97	-48.69	20.96						
3090	169.69	-48.7	20.96						
3091	169.35	-48.69	20.96						
3092	169.06	-48.67	20.96						
3093	168.77	-48.62	20.96						
3094	168.46	-48.56	20.96						
3095	168.17	-48.49	20.96						
3096	167.83	-48.4	20.96						
3097	167.54	-48.3	20.96						
3098	167.21	-48.19	20.96						
3099	166.91	-48.07	20.96						
3100	166.63	-47.93	20.96						
3101	166.32	-47.79	20.96						
3102	166.04	-47.64	20.96						
3103	165.71	-47.48	20.96						
3104	165.41	-47.32	20.96						
3105	165.1	-47.15	20.96						
3106	164.79	-46.98	20.96						
3107	164.52	-46.81	20.96						
3108	164.22	-46.63	20.96						
3109	163.95	-46.45	20.96						
3110	163.62	-46.26	20.96						
3111	163.33	-46.06	20.96						
3112	163.04	-45.86	20.96						
3113	162.73	-45.64	20.96						
3114	162.45	-45.41	20.96						
3115	162.16	-45.17	20.96						
3116	161.89	-44.91	20.96						
3117	161.59	-44.65	20.96						
3118	161.28	-44.39	20.96						
3119	161	-44.11	20.96						
3120	160.68	-43.83	20.96						
3121	160.41	-43.55	20.96						
3122	160.13	-43.27	20.96						
3123	159.86	-42.99	20.96						
3124	159.57	-42.71	20.96						
3125	159.27	-42.44	20.96						
3126	158.99	-42.16	20.96						
3127	158.67	-41.89	20.96						
3128	158.39	-41.63	20.96						
3129	158.1	-41.36	20.96						
3130	157.84	-41.1	20.96						
3131	157.56	-40.84	20.96						
3132	157.26	-40.57	20.96						
3133	156.98	-40.31	20.96						
3134	156.67	-40.04	20.96						
3135	156.4	-39.78	20.96						
3136	156.11	-39.51	20.96						
3137	155.85	-39.25	20.96						
3138	155.59	-38.98	20.96						
3139	155.28	-38.72	20.96						
3140	155.01	-38.45	20.96						
3141	154.71	-38.19	20.96						
3142	154.44	-37.93	20.96						
3143	154.15	-37.66	20.96						
3144	153.88	-37.4	20.96						
3145	153.64	-37.14	20.96						
3146	153.33	-36.89	20.96						
3147	153.06	-36.64	20.96						
3148	152.77	-36.4	20.96						
3149	152.49	-36.16	20.96						
3150	152.21	-35.93	20.96						
3151	151.93	-35.71	20.96						
3152	151.69	-35.5	20.96						
3153	151.4	-35.29	20.96						
3154	151.14	-35.1	20.96						
3155	150.85	-34.91	20.96						
3156	150.56	-34.72	20.96						
3157	150.3	-34.55	20.96						
3158	150	-34.38	20.96						
3159	149.78	-34.22	20.96						
3160	149.49	-34.07	20.96						
3161	149.23	-33.92	20.96						
3162	148.95	-33.78	20.96						
3163	148.66	-33.65	20.96						
3164	148.4	-33.52	20.95						
3165	148.1	-33.39	20.96						
3166	147.86	-33.27	20.95						
3167	147.6	-33.16	20.95						
3168	147.33	-33.05	20.95						
3169	147.06	-32.94	20.95						
3170	146.76	-32.84	20.95						
3171	146.51	-32.75	20.95						
3172	146.21	-32.66	20.95						
3173	145.96	-32.58	20.95						
3174	145.71	-32.51	20.95						
3175	145.44	-32.44	20.95						
3176	145.19	-32.38	20.95						
3177	144.89	-32.32	20.95						
3178	144.64	-32.26	20.95						
3179	144.35	-32.21	20.95						
3180	144.08	-32.16	20.95						
3181	143.86	-32.12	20.95						
3182	143.59	-32.08	20.95						
3183	143.34	-32.05	20.95						
3184	143.05	-32.02	20.95						
3185	142.8	-31.99	20.95						
3186	142.53	-31.97	20.95						
3187	142.25	-31.95	20.95						
3188	142.03	-31.92	20.95						
3189	141.76	-31.9	20.95						
3190	141.53	-31.87	20.95						
3191	141.24	-31.85	20.95						
3192	140.98	-31.82	20.95						
3193	140.73	-31.8	20.95						
3194	140.45	-31.78	20.95						
3195	140.22	-31.76	20.95						
3196	139.96	-31.74	20.95						
3197	139.73	-31.71	20.95						
3198	139.47	-31.69	20.95						
3199	139.2	-31.66	20.95						
3200	138.96	-31.63	20.95						
3201	138.68	-31.6	20.95						
3202	138.44	-31.57	20.95						
3203	138.2	-31.53	20.95						
3204	137.97	-31.49	20.95						
3205	137.71	-31.44	20.95						
3206	137.44	-31.39	20.95						
3207	137.21	-31.34	20.95						
3208	136.93	-31.27	20.95						
3209	136.7	-31.21	20.95						
3210	136.46	-31.13	20.95						
3211	136.23	-31.05	20.95						
3212	135.99	-30.97	20.95						
3213	135.73	-30.88	20.95						
3214	135.5	-30.78	20.95						
3215	135.23	-30.68	20.95						
3216	134.99	-30.57	20.95						
3217	134.75	-30.45	20.95						
3218	134.52	-30.34	20.95						
3219	134.3	-30.22	20.95						
3220	134.04	-30.09	20.95						
3221	133.81	-29.97	20.95						
3222	133.54	-29.84	20.95						
3223	133.31	-29.72	20.95						
3224	133.06	-29.59	20.95						
3225	132.84	-29.47	20.95						
3226	132.64	-29.35	20.95						
3227	132.37	-29.23	20.95						
3228	132.14	-29.12	20.95						
3229	131.89	-29.01	20.95						
3230	131.65	-28.91	20.95						
3231	131.41	-28.82	20.95						
3232	131.16	-28.74	20.95						
3233	130.97	-28.67	20.95						
3234	130.71	-28.61	20.95						
3235	130.48	-28.56	20.95						
3236	130.23	-28.52	20.95						
3237	129.99	-28.5	20.95						
3238	129.76	-28.49	20.95						
3239	129.5	-28.49	20.95						
3240	129.32	-28.5	20.95						
3241	129.07	-28.53	20.95						
3242	128.84	-28.56	20.95						
3243	128.59	-28.61	20.95						
3244	128.33	-28.67	20.95						
3245	128.12	-28.74	20.95						
3246	127.84	-28.81	20.95						
3247	127.65	-28.9	20.95						
3248	127.42	-28.98	20.95						
3249	127.19	-29.08	20.95						
3250	126.96	-29.17	20.95						
3251	126.7	-29.28	20.95						
3252	126.48	-29.38	20.95						
3253	126.22	-29.49	20.95						
3254	126.01	-29.6	20.94						
3255	125.8	-29.71	20.95						
3256	125.57	-29.83	20.94						
3257	125.35	-29.95	20.94						
3258	125.08	-30.06	20.94						
3259	124.88	-30.18	20.94						
3260	124.63	-30.3	20.94						
3261	124.4	-30.41	20.94						
3262	124.21	-30.52	20.94						
3263	123.98	-30.63	20.94						
3264	123.77	-30.73	20.94						
3265	123.51	-30.83	20.94						
3266	123.3	-30.92	20.94						
3267	123.06	-31.01	20.94						
3268	122.83	-31.09	20.94						
3269	122.65	-31.17	20.94						
3270	122.42	-31.26	20.94						
3271	122.21	-31.34	20.94						
3272	121.97	-31.42	20.94						
3273	121.76	-31.51	20.94						
3274	121.53	-31.58	20.94						
3275	121.3	-31.66	20.94						
3276	121.11	-31.74	20.94						
3277	120.89	-31.81	20.94						
3278	120.7	-31.89	20.94						
3279	120.47	-31.95	20.94						
3280	120.24	-32.02	20.94						
3281	120.03	-32.08	20.94						
3282	119.79	-32.14	20.94						
3283	119.6	-32.2	20.94						
3284	119.39	-32.25	20.94						
3285	119.2	-32.3	20.94						
3286	118.98	-32.35	20.94						
3287	118.74	-32.39	20.94						
3288	118.54	-32.43	20.94						
3289	118.3	-32.47	20.94						
3290	118.09	-32.5	20.94						
3291	117.9	-32.53	20.94						
3292	117.7	-32.56	20.94						
3293	117.5	-32.58	20.94						
3294	117.26	-32.6	20.94						
3295	117.07	-32.62	20.94						
3296	116.83	-32.64	20.94						
3297	116.64	-32.65	20.94						
3298	116.43	-32.66	20.94						
3299	116.24	-32.67	20.94						
3300	116.05	-32.68	20.94						
3301	115.82	-32.69	20.94						
3302	115.62	-32.69	20.94						
3303	115.39	-32.69	20.94						
3304	115.2	-32.69	20.94						
3305	114.99	-32.69	20.94						
3306	114.81	-32.69	20.94						
3307	114.63	-32.68	20.94						
3308	114.4	-32.68	20.94						
3309	114.2	-32.67	20.94						
3310	113.99	-32.65	20.94						
3311	113.78	-32.64	20.94						
3312	113.59	-32.63	20.94						
3313	113.39	-32.61	20.94						
3314	113.23	-32.6	20.94						
3315	113	-32.58	20.94						
3316	112.81	-32.56	20.94						
3317	112.6	-32.53	20.94						
3318	112.4	-32.51	20.94						
3319	112.21	-32.48	20.94						
3320	112	-32.45	20.94						
3321	111.85	-32.42	20.94						
3322	111.64	-32.39	20.94						
3323	111.44	-32.36	20.94						
3324	111.24	-32.33	20.94						
3325	111.03	-32.29	20.94						
3326	110.86	-32.26	20.94						
3327	110.64	-32.22	20.94						
3328	110.49	-32.19	20.94						
3329	110.29	-32.15	20.94						
3330	110.1	-32.11	20.94						
3331	109.91	-32.08	20.94						
3332	109.69	-32.04	20.94						
3333	109.52	-31.99	20.94						
3334	109.3	-31.95	20.94						
3335	109.15	-31.91	20.94						
3336	108.97	-31.87	20.94						
3337	108.77	-31.82	20.94						
3338	108.59	-31.78	20.94						
3339	108.36	-31.73	20.93						
3340	108.19	-31.68	20.93						
3341	107.98	-31.64	20.93						
3342	107.82	-31.59	20.93						
3343	107.65	-31.54	20.93						
3344	107.46	-31.49	20.93						
3345	107.28	-31.44	20.93						
3346	107.06	-31.4	20.93						
3347	106.89	-31.35	20.93						
3348	106.69	-31.29	20.93						
3349	106.5	-31.25	20.93						
3350	106.37	-31.19	20.93						
3351	106.16	-31.14	20.93						
3352	105.99	-31.09	20.93						
3353	105.78	-31.03	20.93						
3354	105.6	-30.98	20.93						
3355	105.42	-30.92	20.93						
3356	105.21	-30.86	20.93						
3357	105.08	-30.81	20.93						
3358	104.89	-30.75	20.93						
3359	104.72	-30.69	20.93						
3360	104.52	-30.63	20.93						
3361	104.34	-30.57	20.93						
3362	104.16	-30.51	20.93						
3363	103.96	-30.46	20.93						
3364	103.82	-30.4	20.93						
3365	103.64	-30.34	20.93						
3366	103.48	-30.28	20.93						
3367	103.29	-30.22	20.93						
3368	103.1	-30.17	20.93						
3369	102.93	-30.11	20.93						
3370	102.73	-30.05	20.93						
3371	102.58	-30	20.93						
3372	102.41	-29.94	20.93						
3373	102.25	-29.88	20.93						
3374	102.07	-29.82	20.93						
3375	101.87	-29.76	20.93						
3376	101.72	-29.7	20.93						
3377	101.52	-29.65	20.93						
3378	101.36	-29.59	20.93						
3379	101.2	-29.53	20.93						
3380	101.05	-29.47	20.93						
3381	100.88	-29.4	20.93						
3382	100.68	-29.34	20.93						
3383	100.53	-29.28	20.93						
3384	100.33	-29.22	20.93						
3385	100.16	-29.16	20.93						
3386	100.02	-29.1	20.93						
3387	99.85	-29.03	20.93						
3388	99.71	-28.97	20.93						
3389	99.51	-28.91	20.93						
3390	99.35	-28.85	20.93						
3391	99.16	-28.79	20.93						
3392	98.99	-28.74	20.93						
3393	98.83	-28.68	20.93						
3394	98.67	-28.63	20.93						
3395	98.53	-28.58	20.93						
3396	98.33	-28.53	20.93						
3397	98.17	-28.47	20.93						
3398	97.99	-28.41	20.93						
3399	97.82	-28.36	20.93						
3400	97.66	-28.3	20.93						
3401	97.5	-28.24	20.93						
3402	97.37	-28.18	20.93						
3403	97.18	-28.11	20.93						
3404	97.01	-28.05	20.93						
3405	96.85	-27.99	20.93						
3406	96.67	-27.92	20.93						
3407	96.51	-27.86	20.93						
3408	96.35	-27.8	20.93						
3409	96.22	-27.73	20.93						
3410	96.05	-27.67	20.93						
3411	95.88	-27.6	20.93						
3412	95.72	-27.54	20.93						
3413	95.54	-27.47	20.93						
3414	95.39	-27.41	20.93						
3415	95.21	-27.35	20.93						
3416	95.09	-27.28	20.93						
3417	94.93	-27.22	20.93						
3418	94.77	-27.15	20.93						
3419	94.61	-27.09	20.93						
3420	94.43	-27.03	20.93						
3421	94.28	-26.96	20.93						
3422	94.1	-26.9	20.93						
3423	93.99	-26.83	20.93						
3424	93.84	-26.77	20.93						
3425	93.67	-26.7	20.93						
3426	93.52	-26.64	20.93						
3427	93.33	-26.57	20.93						
3428	93.2	-26.51	20.93						
3429	93.02	-26.45	20.93						
3430	92.89	-26.38	20.92						
3431	92.76	-26.32	20.92						
3432	92.59	-26.26	20.92						
3433	92.45	-26.19	20.92						
3434	92.26	-26.13	20.92						
3435	92.13	-26.07	20.92						
3436	91.96	-26	20.92						
3437	91.81	-25.94	20.92						
3438	91.7	-25.88	20.92						
3439	91.53	-25.81	20.92						
3440	91.39	-25.75	20.92						
3441	91.21	-25.69	20.92						
3442	91.07	-25.63	20.92						
3443	90.91	-25.57	20.92						
3444	90.75	-25.51	20.92						
3445	90.65	-25.45	20.92						
3446	90.49	-25.39	20.92						
3447	90.36	-25.33	20.92						
3448	90.18	-25.26	20.92						
3449	90.03	-25.2	20.92						
3450	89.89	-25.14	20.92						
3451	89.71	-25.08	20.92						
3452	89.61	-25.03	20.92						
3453	89.46	-24.96	20.92						
3454	89.33	-24.9	20.92						
3455	89.16	-24.83	20.92						
3456	89	-24.76	20.92						
3457	88.87	-24.68	20.92						
3458	88.69	-24.61	20.92						
3459	88.58	-24.53	20.92						
3460	88.44	-24.45	20.92						
3461	88.31	-24.38	20.92						
3462	88.15	-24.3	20.92						
3463	87.98	-24.23	20.92						
3464	87.86	-24.16	20.92						
3465	87.68	-24.1	20.92						
3466	87.56	-24.04	20.92						
3467	87.43	-23.97	20.92						
3468	87.3	-23.91	20.92						
3469	87.17	-23.85	20.92						
3470	86.99	-23.8	20.92						
3471	86.87	-23.74	20.92						
3472	86.7	-23.68	20.92						
3473	86.56	-23.63	20.92						
3474	86.44	-23.57	20.92						
3475	86.31	-23.51	20.92						
3476	86.19	-23.46	20.92						
3477	86.01	-23.4	20.92						
3478	85.89	-23.35	20.92						
3479	85.72	-23.29	20.92						
3480	85.58	-23.24	20.92						
3481	85.47	-23.18	20.92						
3482	85.33	-23.13	20.92						
3483	85.22	-23.07	20.92						
3484	85.05	-23.02	20.92						
3485	84.93	-22.96	20.92						
3486	84.77	-22.91	20.92						
3487	84.63	-22.85	20.92						
3488	84.5	-22.8	20.92						
3489	84.37	-22.75	20.92						
3490	84.27	-22.7	20.92						
3491	84.11	-22.64	20.92						
3492	83.97	-22.59	20.92						
3493	83.83	-22.54	20.92						
3494	83.69	-22.49	20.92						
3495	83.56	-22.43	20.92						
3496	83.43	-22.38	20.92						
3497	83.33	-22.33	20.92						
3498	83.18	-22.28	20.92						
3499	83.04	-22.23	20.92						
3500	82.91	-22.18	20.92						
3501	82.76	-22.13	20.92						
3502	82.64	-22.08	20.92						
3503	82.5	-22.03	20.92						
3504	82.41	-21.98	20.92						
3505	82.27	-21.92	20.92						
3506	82.13	-21.87	20.92						
3507	82	-21.82	20.92						
3508	81.85	-21.77	20.92						
3509	81.73	-21.72	20.92						
3510	81.59	-21.67	20.92						
3511	81.5	-21.62	20.92						
3512	81.37	-21.57	20.92						
3513	81.23	-21.53	20.92						
3514	81.11	-21.48	20.92						
3515	80.95	-21.43	20.92						
3516	80.84	-21.38	20.91						
3517	80.69	-21.33	20.92						
3518	80.6	-21.28	20.92						
3519	80.49	-21.23	20.92						
3520	80.34	-21.18	20.91						
3521	80.22	-21.13	20.91						
3522	80.07	-21.08	20.91						
3523	79.96	-21.03	20.91						
3524	79.81	-20.98	20.91						
3525	79.71	-20.93	20.91						
3526	79.62	-20.89	20.91						
3527	79.47	-20.84	20.91						
3528	79.36	-20.79	20.91						
3529	79.2	-20.74	20.91						
3530	79.09	-20.7	20.91						
3531	78.96	-20.65	20.91						
3532	78.83	-20.6	20.91						
3533	78.75	-20.56	20.91						
3534	78.61	-20.51	20.91						
3535	78.49	-20.47	20.91						
3536	78.34	-20.42	20.91						
3537	78.22	-20.37	20.91						
3538	78.1	-20.33	20.91						
3539	77.96	-20.29	20.91						
3540	77.89	-20.24	20.91						
3541	77.75	-20.2	20.91						
3542	77.65	-20.16	20.91						
3543	77.5	-20.11	20.91						
3544	77.37	-20.07	20.91						
3545	77.26	-20.02	20.91						
3546	77.11	-19.98	20.91						
3547	77.04	-19.94	20.91						
3548	76.91	-19.89	20.91						
3549	76.81	-19.85	20.91						
3550	76.67	-19.8	20.91						
3551	76.54	-19.75	20.91						
3552	76.44	-19.71	20.91						
3553	76.29	-19.66	20.91						
3554	76.21	-19.62	20.91						
3555	76.09	-19.57	20.91						
3556	75.98	-19.53	20.91						
3557	75.86	-19.48	20.91						
3558	75.72	-19.43	20.91						
3559	75.62	-19.39	20.91						
3560	75.47	-19.34	20.91						
3561	75.38	-19.29	20.91						
3562	75.28	-19.24	20.91						
3563	75.17	-19.2	20.91						
3564	75.07	-19.15	20.91						
3565	74.91	-19.1	20.91						
3566	74.82	-19.06	20.91						
3567	74.68	-19.01	20.91						
3568	74.57	-18.97	20.91						
3569	74.49	-18.92	20.91						
3570	74.37	-18.88	20.91						
3571	74.49	-18.92	20.91						
3572	74.27	-18.83	20.91						
3573	74.13	-18.79	20.91						
3574	74.02	-18.75	20.91						
3575	73.9	-18.7	20.91						
3576	73.78	-18.66	20.91						
3577	73.7	-18.62	20.91						
3578	73.58	-18.57	20.91						
3579	73.5	-18.53	20.91						
3580	73.35	-18.49	20.91						
3581	73.25	-18.44	20.91						
3582	73.13	-18.4	20.91						
3583	73.01	-18.36	20.91						
3584	72.92	-18.31	20.91						
3585	72.81	-18.27	20.91						
3586	72.73	-18.23	20.91						
3587	72.59	-18.19	20.91						
3588	72.48	-18.15	20.91						
3589	72.37	-18.11	20.91						
3590	72.25	-18.07	20.91						
3591	72.16	-18.03	20.91						
3592	72.05	-17.98	20.91						
3593	71.97	-17.94	20.91						
3594	71.85	-17.9	20.91						
3595	71.73	-17.86	20.91						
3596	71.63	-17.82	20.91						
3597	71.5	-17.78	20.91						
3598	71.4	-17.74	20.91						
3599	71.31	-17.7	20.91						
3600	71.23	-17.66	20.91						
3601	71.11	-17.62	20.91						
3602	70.99	-17.58	20.91						
3603	70.9	-17.54	20.91						
3604	70.77	-17.51	20.91						
3605	70.68	-17.47	20.91						
3606	70.57	-17.43	20.91						
3607	70.49	-17.39	20.91						
3608	70.39	-17.36	20.91						
3609	70.27	-17.32	20.91						
3610	70.18	-17.28	20.91						
3611	70.04	-17.24	20.91						
3612	69.96	-17.21	20.91						
3613	69.84	-17.17	20.91						
3614	69.77	-17.13	20.91						
3615	69.69	-17.1	20.91						
3616	69.56	-17.06	20.91						
3617	69.46	-17.02	20.91						
3618	69.33	-16.99	20.91						
3619	69.24	-16.95	20.91						
3620	69.12	-16.92	20.9						
3621	69.04	-16.88	20.9						
3622	68.98	-16.85	20.9						
3623	68.85	-16.81	20.9						
3624	68.75	-16.78	20.9						
3625	68.63	-16.74	20.9						
3626	68.54	-16.71	20.9						
3627	68.42	-16.67	20.9						
3628	68.34	-16.63	20.9						
3629	68.27	-16.6	20.9						
3630	68.14	-16.56	20.9						
3631	68.06	-16.53	20.9						
3632	67.93	-16.49	20.9						
3633	67.84	-16.45	20.9						
3634	67.74	-16.41	20.9						
3635	67.63	-16.38	20.9						
3636	67.58	-16.34	20.9						
3637	67.46	-16.31	20.9						
3638	67.38	-16.27	20.9						
3639	67.26	-16.24	20.9						
3640	67.15	-16.2	20.9						
3641	67.06	-16.16	20.9						
3642	66.94	-16.13	20.9						
3643	66.9	-16.09	20.9						
3644	66.78	-16.06	20.9						
3645	66.7	-16.02	20.9						
3646	66.59	-15.99	20.9						
3647	66.48	-15.95	20.9						
3648	66.4	-15.92	20.9						
3649	66.27	-15.88	20.9						
3650	66.22	-15.85	20.9						
3651	66.12	-15.82	20.9						
3652	66.03	-15.78	20.9						
3653	65.93	-15.75	20.9						
3654	65.81	-15.72	20.9						
3655	65.74	-15.68	20.9						
3656	65.61	-15.65	20.9						
3657	65.55	-15.62	20.9						
3658	65.48	-15.59	20.9						
3659	65.38	-15.55	20.9						
3660	65.29	-15.52	20.9						
3661	65.16	-15.49	20.9						
3662	65.09	-15.46	20.9						
3663	64.97	-15.43	20.9						
3664	64.89	-15.39	20.9						
3665	64.83	-15.36	20.9						
3666	64.73	-15.33	20.9						
3667	64.65	-15.3	20.9						
3668	64.52	-15.27	20.9						
3669	64.45	-15.24	20.9						
3670	64.34	-15.21	20.9						
3671	64.25	-15.18	20.9						
3672	64.19	-15.15	20.9						
3673	64.09	-15.12	20.9						
3674	64.02	-15.09	20.9						
3675	63.9	-15.06	20.9						
3676	63.82	-15.03	20.9						
3677	63.72	-15	20.9						
3678	63.61	-14.97	20.9						
3679	63.58	-14.94	20.9						
3680	63.47	-14.91	20.9						
3681	63.41	-14.88	20.9						
3682	63.29	-14.84	20.9						
3683	63.2	-14.81	20.9						
3684	63.11	-14.78	20.9						
3685	63	-14.75	20.9						
3686	62.95	-14.72	20.9						
3687	62.86	-14.69	20.9						
3688	62.79	-14.66	20.9						
3689	62.68	-14.63	20.9						
3690	62.59	-14.6	20.9						
3691	62.51	-14.57	20.9						
3692	62.4	-14.54	20.9						
3693	62.34	-14.51	20.9						
3694	62.26	-14.48	20.9						
3695	62.19	-14.45	20.9						
3696	62.09	-14.42	20.9						
3697	61.99	-14.4	20.9						
3698	61.92	-14.37	20.9						
3699	61.8	-14.34	20.9						
3700	61.74	-14.31	20.9						
3701	61.67	-14.28	20.9						
3702	61.6	-14.25	20.9						
3703	61.52	-14.22	20.9						
3704	61.41	-14.2	20.9						
3705	61.34	-14.17	20.9						
3706	61.23	-14.14	20.9						
3707	61.15	-14.11	20.9						
3708	61.08	-14.08	20.9						
3709	61.01	-14.05	20.9						
3710	60.94	-14.02	20.9						
3711	60.83	-13.99	20.9						
3712	60.76	-13.96	20.9						
3713	60.65	-13.93	20.9						
3714	60.58	-13.9	20.9						
3715	60.5	-13.87	20.9						
3716	60.44	-13.85	20.9						
3717	60.38	-13.82	20.9						
3718	60.27	-13.79	20.9						
3719	60.2	-13.76	20.9						
3720	60.1	-13.73	20.9						
3721	60.02	-13.71	20.9						
3722	59.93	-13.68	20.9						
3723	59.88	-13.65	20.9						
3724	59.82	-13.63	20.9						
3725	59.71	-13.6	20.9						
3726	59.64	-13.57	20.9						
3727	59.54	-13.55	20.9						
3728	59.46	-13.52	20.9						
3729	59.37	-13.49	20.9						
3730	59.31	-13.46	20.9						
3731	59.26	-13.44	20.9						
3732	59.16	-13.41	20.9						
3733	59.08	-13.39	20.9						
3734	58.99	-13.36	20.9						
3735	58.9	-13.33	20.9						
3736	58.83	-13.31	20.9						
3737	58.75	-13.28	20.9						
3738	58.71	-13.26	20.9						
3739	58.62	-13.23	20.9						
3740	58.54	-13.21	20.9						
3741	58.45	-13.18	20.9						
3742	58.36	-13.15	20.9						
3743	58.3	-13.12	20.9						
3744	58.2	-13.1	20.9						
3745	58.16	-13.07	20.9						
3746	58.08	-13.04	20.9						
3747	58	-13.02	20.9						
3748	57.92	-12.99	20.9						
3749	57.82	-12.96	20.9						
3750	57.77	-12.94	20.9						
3751	57.66	-12.91	20.9						
3752	57.63	-12.89	20.9						
3753	57.55	-12.86	20.9						
3754	57.47	-12.84	20.9						
3755	57.39	-12.81	20.9						
3756	57.29	-12.79	20.9						
3757	57.24	-12.76	20.9						
3758	57.13	-12.74	20.9						
3759	57.1	-12.71	20.9						
3760	57.03	-12.69	20.9						
3761	56.95	-12.66	20.89						
3762	56.89	-12.64	20.89						
3763	56.78	-12.61	20.89						
3764	56.72	-12.59	20.89						
3765	56.62	-12.56	20.89						
3766	56.57	-12.54	20.89						
3767	56.52	-12.51	20.89						
3768	56.44	-12.49	20.89						
3769	56.38	-12.46	20.89						
3770	56.27	-12.44	20.89						
3771	56.21	-12.42	20.89						
3772	56.12	-12.39	20.89						
3773	56.06	-12.37	20.89						
3774	56.02	-12.35	20.89						
3775	55.93	-12.33	20.89						
3776	55.88	-12.3	20.89						
3777	55.77	-12.28	20.89						
3778	55.71	-12.26	20.89						
3779	55.63	-12.23	20.89						
3780	55.55	-12.21	20.89						
3781	55.53	-12.19	20.89						
3782	55.44	-12.16	20.89						
3783	55.39	-12.14	20.89						
3784	55.29	-12.12	20.89						
3785	55.23	-12.09	20.89						
3786	55.15	-12.07	20.89						
3787	55.06	-12.04	20.89						
3788	55.04	-12.02	20.89						
3789	54.95	-11.99	20.89						
3790	54.91	-11.97	20.89						
3791	54.81	-11.94	20.89						
3792	54.75	-11.92	20.89						
3793	54.68	-11.89	20.89						
3794	54.58	-11.87	20.89						
3795	54.55	-11.85	20.89						
3796	54.48	-11.82	20.89						
3797	54.43	-11.8	20.89						
3798	54.35	-11.77	20.89						
3799	54.27	-11.75	20.89						
3800	54.21	-11.73	20.89						
3801	54.11	-11.7	20.89						
3802	54.07	-11.68	20.89						
3803	54.01	-11.66	20.89						
3804	53.96	-11.64	20.89						
3805	53.89	-11.61	20.89						
3806	53.8	-11.59	20.89						
3807	53.75	-11.57	20.89						
3808	53.65	-11.55	20.89						
3809	53.6	-11.52	20.89						
3810	53.54	-11.5	20.89						
3811	53.49	-11.48	20.89						
3812	53.44	-11.46	20.89						
3813	53.33	-11.43	20.89						
3814	53.29	-11.41	20.89						
3815	53.19	-11.39	20.89						
3816	53.14	-11.37	20.89						
3817	53.08	-11.35	20.89						
3818	53.04	-11.32	20.89						
3819	52.99	-11.3	20.89						
3820	52.89	-11.28	20.89						
3821	52.85	-11.26	20.89						
3822	52.75	-11.24	20.89						
3823	52.69	-11.22	20.89						
3824	52.64	-11.19	20.89						
3825	52.59	-11.17	20.89						
3826	52.55	-11.15	20.89						
3827	52.45	-11.13	20.89						
3828	52.4	-11.11	20.89						
3829	52.32	-11.08	20.89						
3830	52.25	-11.06	20.89						
3831	52.2	-11.04	20.89						
3832	52.15	-11.02	20.89						
3833	52.11	-11	20.89						
3834	52.02	-10.98	20.89						
3835	51.97	-10.96	20.89						
3836	51.89	-10.94	20.89						
3837	51.82	-10.92	20.89						
3838	51.76	-10.9	20.89						
3839	51.71	-10.88	20.89						
3840	51.68	-10.86	20.89						
3841	51.6	-10.83	20.89						
3842	51.54	-10.81	20.89						
3843	51.47	-10.79	20.89						
3844	51.4	-10.77	20.89						
3845	51.34	-10.75	20.89						
3846	51.28	-10.73	20.89						
3847	51.26	-10.71	20.89						
3848	51.18	-10.69	20.89						
3849	51.12	-10.66	20.89						
3850	51.05	-10.64	20.89						
3851	50.97	-10.62	20.89						
3852	50.93	-10.6	20.89						
3853	50.85	-10.58	20.89						
3854	50.85	-10.56	20.89						
3855	50.77	-10.54	20.89						
3856	50.71	-10.52	20.89						
3857	50.65	-10.5	20.89						
3858	50.56	-10.48	20.89						
3859	50.52	-10.46	20.89						
3860	50.44	-10.44	20.89						
3861	50.43	-10.42	20.89						
3862	50.37	-10.4	20.89						
3863	50.3	-10.38	20.89						
3864	50.24	-10.36	20.89						
3865	50.16	-10.34	20.89						
3866	50.12	-10.32	20.89						
3867	50.04	-10.3	20.89						
3868	50.02	-10.28	20.89						
3869	49.97	-10.26	20.89						
3870	49.91	-10.24	20.89						
3871	49.86	-10.22	20.89						
3872	49.77	-10.2	20.89						
3873	49.72	-10.18	20.89						
3874	49.64	-10.16	20.89						
3875	49.61	-10.14	20.89						
3876	49.58	-10.12	20.89						
3877	49.51	-10.1	20.89						
3878	49.47	-10.08	20.89						
3879	49.37	-10.06	20.89						
3880	49.33	-10.05	20.89						
3881	49.25	-10.03	20.89						
3882	49.21	-10.01	20.89						
3883	49.19	-9.99	20.89						
3884	49.11	-9.97	20.89						
3885	49.07	-9.95	20.89						
3886	48.98	-9.93	20.89						
3887	48.94	-9.91	20.89						
3888	48.87	-9.89	20.89						
3889	48.81	-9.87	20.89						
3890	48.81	-9.85	20.89						
3891	48.73	-9.84	20.89						
3892	48.69	-9.82	20.89						
3893	48.6	-9.8	20.89						
3894	48.55	-9.78	20.89						
3895	48.5	-9.76	20.89						
3896	48.42	-9.74	20.89						
3897	48.42	-9.72	20.89						
3898	48.34	-9.7	20.89						
3899	48.31	-9.68	20.89						
3900	48.24	-9.66	20.89						
3901	48.18	-9.64	20.89						
3902	48.13	-9.62	20.89						
3903	48.04	-9.6	20.89						
3904	48.04	-9.58	20.89						
3905	47.97	-9.56	20.89						
3906	47.94	-9.54	20.89						
3907	47.87	-9.52	20.89						
3908	47.8	-9.5	20.89						
3909	47.76	-9.48	20.89						
3910	47.67	-9.46	20.89						
3911	47.66	-9.45	20.89						
3912	47.61	-9.43	20.89						
3913	47.58	-9.41	20.89						
3914	47.51	-9.39	20.89						
3915	47.44	-9.38	20.89						
3916	47.41	-9.36	20.89						
3917	47.31	-9.34	20.89						
3918	47.29	-9.32	20.89						
3919	47.25	-9.31	20.89						
3920	47.21	-9.29	20.89						
3921	47.16	-9.27	20.89						
3922	47.07	-9.25	20.89						
3923	47.05	-9.23	20.89						
3924	46.96	-9.21	20.89						
3925	46.93	-9.2	20.89						
3926	46.89	-9.18	20.89						
3927	46.86	-9.17	20.89						
3928	46.82	-9.15	20.89						
3929	46.73	-9.13	20.89						
3930	46.7	-9.11	20.89						
3931	46.61	-9.1	20.89						
3932	46.57	-9.08	20.89						
3933	46.55	-9.06	20.89						
3934	46.5	-9.05	20.89						
3935	46.47	-9.03	20.89						
3936	46.39	-9.02	20.89						
3937	46.36	-9	20.89						
3938	46.28	-8.98	20.89						
3939	46.23	-8.97	20.89						
3940	46.2	-8.95	20.89						
3941	46.15	-8.93	20.89						
3942	46.13	-8.92	20.89						
3943	46.05	-8.9	20.89						
3944	46.01	-8.88	20.89						
3945	45.94	-8.86	20.89						
3946	45.9	-8.84	20.89						
3947	45.86	-8.82	20.89						
3948	45.81	-8.81	20.89						
3949	45.8	-8.79	20.89						
3950	45.72	-8.77	20.89						
3951	45.67	-8.75	20.89						
3952	45.62	-8.74	20.89						
3953	45.56	-8.72	20.89						
3954	45.52	-8.71	20.89						
3955	45.48	-8.69	20.89						
3956	45.47	-8.68	20.89						
3957	45.4	-8.66	20.89						
3958	45.34	-8.65	20.89						
3959	45.3	-8.63	20.89						
3960	45.23	-8.62	20.89						
3961	45.19	-8.6	20.89						
3962	45.16	-8.58	20.89						
3963	45.14	-8.57	20.89						
3964	45.08	-8.55	20.89						
3965	45.03	-8.54	20.89						
3966	44.98	-8.52	20.89						
3967	44.91	-8.51	20.89						
3968	44.88	-8.49	20.89						
3969	44.82	-8.47	20.89						
3970	44.81	-8.46	20.89						
3971	44.77	-8.44	20.89						
3972	44.71	-8.43	20.89						
3973	44.67	-8.41	20.89						
3974	44.6	-8.39	20.89						
3975	44.57	-8.38	20.89						
3976	44.5	-8.36	20.89						
3977	44.5	-8.35	20.89						
3978	44.46	-8.33	20.89						
3979	44.4	-8.32	20.89						
3980	44.36	-8.3	20.89						
3981	44.28	-8.28	20.89						
3982	44.27	-8.27	20.89						
3983	44.19	-8.25	20.89						
3984	44.19	-8.24	20.89						
3985	44.16	-8.22	20.89						
3986	44.09	-8.21	20.89						
3987	44.05	-8.19	20.89						
3988	43.98	-8.18	20.89						
3989	43.96	-8.16	20.89						
3990	43.89	-8.15	20.89						
3991	43.87	-8.14	20.89						
3992	43.86	-8.12	20.89						
3993	43.79	-8.11	20.89						
3994	43.76	-8.09	20.89						
3995	43.69	-8.08	20.89						
3996	43.65	-8.07	20.89						
3997	43.59	-8.05	20.89						
3998	43.57	-8.04	20.89						
3999	43.56	-8.03	20.89						
4000	43.49	-8.02	20.89						
4001	43.46	-8	20.89						
4002	43.39	-7.99	20.89						
4003	43.35	-7.98	20.89						
4004	43.31	-7.96	20.89						
4005	43.27	-7.95	20.89						
4006	43.27	-7.94	20.89						
4007	43.2	-7.92	20.89						
4008	43.18	-7.91	20.89						
4009	43.11	-7.89	20.89						
4010	43.07	-7.88	20.89						
4011	43.03	-7.86	20.89						
4012	42.97	-7.85	20.89						
4013	42.98	-7.83	20.89						
4014	42.92	-7.82	20.89						
4015	42.89	-7.8	20.89						
4016	42.82	-7.79	20.89						
4017	42.78	-7.77	20.89						
4018	42.75	-7.75	20.89						
4019	42.68	-7.74	20.89						
4020	42.69	-7.72	20.89						
4021	42.64	-7.71	20.89						
4022	42.61	-7.69	20.89						
4023	42.55	-7.68	20.89						
4024	42.51	-7.66	20.89						
4025	42.48	-7.65	20.89						
4026	42.39	-7.64	20.89						
4027	42.41	-7.62	20.89						
4028	42.36	-7.61	20.89						
4029	42.34	-7.6	20.89						
4030	42.28	-7.58	20.89						
4031	42.23	-7.57	20.89						
4032	42.2	-7.56	20.89						
4033	42.13	-7.54	20.89						
4034	42.13	-7.53	20.89						
4035	42.09	-7.52	20.89						
4036	42.06	-7.51	20.89						
4037	42.02	-7.49	20.89						
4038	41.96	-7.48	20.89						
4039	41.93	-7.46	20.89						
4040	41.86	-7.45	20.89						
4041	41.85	-7.44	20.89						
4042	41.83	-7.42	20.89						
4043	41.8	-7.41	20.89						
4044	41.77	-7.4	20.89						
4045	41.69	-7.38	20.89						
4046	41.67	-7.37	20.89						
4047	41.61	-7.36	20.89						
4048	41.58	-7.34	20.89						
4049	41.57	-7.33	20.89						
4050	41.53	-7.32	20.89						
4051	41.51	-7.31	20.89						
4052	41.42	-7.29	20.89						
4053	41.41	-7.28	20.89						
4054	41.35	-7.27	20.89						
4055	41.31	-7.25	20.89						
4056	41.31	-7.24	20.89						
4057	41.27	-7.23	20.89						
4058	41.25	-7.22	20.89						
4059	41.17	-7.2	20.89						
4060	41.15	-7.19	20.89						
4061	41.1	-7.18	20.89						
4062	41.05	-7.16	20.89						
4063	41.05	-7.15	20.89						
4064	41.01	-7.14	20.89						
4065	41	-7.13	20.89						
4066	40.93	-7.11	20.89						
4067	40.91	-7.1	20.89						
4068	40.85	-7.08	20.89						
4069	40.8	-7.07	20.89						
4070	40.8	-7.06	20.89						
4071	40.76	-7.05	20.89						
4072	40.75	-7.03	20.89						
4073	40.69	-7.02	20.89						
4074	40.65	-7.01	20.89						
4075	40.61	-6.99	20.89						
4076	40.56	-6.98	20.89						
4077	40.55	-6.97	20.89						
4078	40.52	-6.96	20.89						
4079	40.51	-6.95	20.89						
4080	40.45	-6.93	20.89						
4081	40.41	-6.92	20.89						
4082	40.38	-6.91	20.89						
4083	40.32	-6.9	20.89						
4084	40.3	-6.89	20.89						
4085	40.27	-6.87	20.89						
4086	40.26	-6.86	20.89						
4087	40.22	-6.85	20.89						
4088	40.17	-6.84	20.89						
4089	40.15	-6.82	20.89						
4090	40.08	-6.81	20.89						
4091	40.06	-6.8	20.89						
4092	40.03	-6.79	20.89						
4093	40.02	-6.78	20.89						
4094	39.99	-6.76	20.89						
4095	39.93	-6.75	20.89						
4096	39.91	-6.74	20.89						
4097	39.85	-6.72	20.89						
4098	39.82	-6.71	20.89						
4099	39.8	-6.7	20.89						
4100	39.79	-6.69	20.89						
4101	39.76	-6.68	20.89						
4102	39.7	-6.67	20.89						
4103	39.69	-6.66	20.89						
4104	39.61	-6.65	20.89						
4105	39.59	-6.63	20.89						
4106	39.56	-6.62	20.89						
4107	39.55	-6.61	20.89						
4108	39.54	-6.6	20.89						
4109	39.47	-6.59	20.89						
4110	39.45	-6.58	20.89						
4111	39.39	-6.56	20.89						
4112	39.36	-6.55	20.89						
4113	39.33	-6.54	20.89						
4114	39.32	-6.53	20.89						
4115	39.31	-6.52	20.89						
4116	39.25	-6.51	20.89						
4117	39.22	-6.5	20.89						
4118	39.17	-6.49	20.89						
4119	39.14	-6.48	20.89						
4120	39.1	-6.46	20.89						
4121	39.09	-6.46	20.89						
4122	39.09	-6.45	20.89						
4123	39.03	-6.44	20.89						
4124	39	-6.43	20.89						
4125	38.95	-6.42	20.89						
4126	38.92	-6.41	20.89						
4127	38.88	-6.4	20.89						
4128	38.85	-6.39	20.89						
4129	38.86	-6.38	20.89						
4130	38.8	-6.37	20.89						
4131	38.78	-6.36	20.89						
4132	38.73	-6.35	20.89						
4133	38.7	-6.34	20.89						
4134	38.67	-6.33	20.89						
4135	38.63	-6.32	20.89						
4136	38.65	-6.31	20.89						
4137	38.6	-6.3	20.89						
4138	38.57	-6.29	20.89						
4139	38.53	-6.28	20.89						
4140	38.48	-6.27	20.89						
4141	38.46	-6.26	20.89						
4142	38.41	-6.25	20.89						
4143	38.43	-6.24	20.89						
4144	38.38	-6.22	20.89						
4145	38.36	-6.21	20.89						
4146	38.32	-6.2	20.89						
4147	38.27	-6.19	20.89						
4148	38.25	-6.18	20.89						
4149	38.2	-6.17	20.89						
4150	38.22	-6.16	20.89						
4151	38.18	-6.15	20.89						
4152	38.15	-6.14	20.89						
4153	38.11	-6.13	20.89						
4154	38.06	-6.12	20.89						
4155	38.05	-6.11	20.89						
4156	37.98	-6.1	20.89						
4157	38	-6.09	20.89						
4158	37.98	-6.08	20.89						
4159	37.94	-6.07	20.89						
4160	37.92	-6.06	20.89						
4161	37.85	-6.06	20.89						
4162	37.85	-6.05	20.89						
4163	37.79	-6.04	20.89						
4164	37.8	-6.03	20.89						
4165	37.78	-6.02	20.89						
4166	37.74	-6.01	20.89						
4167	37.72	-6	20.89						
4168	37.66	-5.99	20.89						
4169	37.64	-5.98	20.89						
4170	37.59	-5.97	20.89						
4171	37.58	-5.97	20.89						
4172	37.59	-5.96	20.89						
4173	37.54	-5.95	20.89						
4174	37.52	-5.94	20.89						
4175	37.47	-5.93	20.89						
4176	37.44	-5.92	20.89						
4177	37.4	-5.91	20.89						
4178	37.38	-5.9	20.89						
4179	37.39	-5.89	20.89						
4180	37.35	-5.88	20.89						
4181	37.33	-5.87	20.89						
4182	37.27	-5.86	20.89						
4183	37.25	-5.86	20.89						
4184	37.22	-5.84	20.89						
4185	37.18	-5.84	20.89						
4186	37.2	-5.83	20.89						
4187	37.15	-5.82	20.89						
4188	37.14	-5.81	20.89						
4189	37.08	-5.8	20.89						
4190	37.06	-5.79	20.89						
4191	37.03	-5.78	20.89						
4192	36.98	-5.77	20.89						
4193	37.01	-5.76	20.89						
4194	36.97	-5.76	20.89						
4195	36.96	-5.75	20.89						
4196	36.9	-5.74	20.89						
4197	36.87	-5.73	20.89						
4198	36.85	-5.72	20.89						
4199	36.79	-5.71	20.89						
4200	36.82	-5.71	20.89						
4201	36.78	-5.7	20.89						
4202	36.77	-5.69	20.89						
4203	36.73	-5.68	20.89						
4204	36.68	-5.67	20.89						
4205	36.67	-5.66	20.89						
4206	36.6	-5.65	20.89						
4207	36.63	-5.64	20.89						
4208	36.6	-5.63	20.89						
4209	36.58	-5.62	20.89						
4210	36.55	-5.61	20.89						
4211	36.51	-5.61	20.89						
4212	36.49	-5.6	20.89						
4213	36.43	-5.59	20.89						
4214	36.44	-5.58	20.89						
4215	36.43	-5.58	20.89						
4216	36.41	-5.57	20.89						
4217	36.38	-5.56	20.89						
4218	36.32	-5.55	20.89						
4219	36.32	-5.54	20.89						
4220	36.26	-5.53	20.89						
4221	36.25	-5.53	20.89						
4222	36.25	-5.52	20.89						
4223	36.23	-5.51	20.89						
4224	36.22	-5.5	20.89						
4225	36.14	-5.49	20.89						
4226	36.14	-5.49	20.89						
4227	36.09	-5.48	20.89						
4228	36.07	-5.47	20.89						
4229	36.08	-5.46	20.89						
4230	36.05	-5.45	20.89						
4231	36.05	-5.44	20.89						
4232	35.97	-5.43	20.89						
4233	35.97	-5.42	20.89						
4234	35.93	-5.41	20.89						
4235	35.9	-5.41	20.89						
4236	35.91	-5.4	20.89						
4237	35.88	-5.39	20.89						
4238	35.88	-5.38	20.89						
4239	35.81	-5.37	20.89						
4240	35.8	-5.36	20.89						
4241	35.76	-5.36	20.89						
4242	35.72	-5.35	20.89						
4243	35.74	-5.34	20.89						
4244	35.71	-5.33	20.89						
4245	35.71	-5.33	20.89						
4246	35.65	-5.32	20.89						
4247	35.64	-5.31	20.89						
4248	35.6	-5.3	20.89						
4249	35.56	-5.3	20.89						
4250	35.58	-5.29	20.89						
4251	35.54	-5.28	20.89						
4252	35.55	-5.27	20.89						
4253	35.49	-5.27	20.89						
4254	35.47	-5.26	20.89						
4255	35.44	-5.25	20.89						
4256	35.39	-5.25	20.89						
4257	35.41	-5.24	20.89						
4258	35.38	-5.23	20.89						
4259	35.38	-5.23	20.89						
4260	35.34	-5.22	20.89						
4261	35.31	-5.21	20.89						
4262	35.29	-5.2	20.89						
4263	35.24	-5.2	20.89						
4264	35.25	-5.19	20.89						
4265	35.22	-5.18	20.89						
4266	35.22	-5.17	20.89						
4267	35.19	-5.17	20.89						
4268	35.14	-5.16	20.89						
4269	35.14	-5.15	20.89						
4270	35.08	-5.14	20.89						
4271	35.08	-5.14	20.89						
4272	35.07	-5.13	20.89						
4273	35.07	-5.12	20.89						
4274	35.04	-5.11	20.89						
4275	34.99	-5.1	20.89						
4276	34.98	-5.1	20.89						
4277	34.93	-5.09	20.89						
4278	34.92	-5.08	20.89						
4279	34.92	-5.07	20.89						
4280	34.91	-5.06	20.89						
4281	34.9	-5.05	20.89						
4282	34.83	-5.05	20.89						
4283	34.84	-5.04	20.89						
4284	34.78	-5.03	20.89						
4285	34.77	-5.02	20.89						
4286	34.77	-5.01	20.89						
4287	34.76	-5	20.89						
4288	34.75	-4.99	20.89						
4289	34.69	-4.99	20.89						
4290	34.69	-4.98	20.89						
4291	34.64	-4.97	20.89						
4292	34.62	-4.96	20.89						
4293	34.62	-4.96	20.89						
4294	34.6	-4.95	20.88						
4295	34.6	-4.95	20.89						
4296	34.55	-4.94	20.89						
4297	34.54	-4.93	20.89						
4298	34.49	-4.93	20.89						
4299	34.47	-4.92	20.89						
4300	34.47	-4.91	20.89						
4301	34.46	-4.91	20.89						
4302	34.46	-4.9	20.89						
4303	34.41	-4.89	20.89						
4304	34.39	-4.89	20.89						
4305	34.35	-4.88	20.89						
4306	34.33	-4.87	20.89						
4307	34.32	-4.86	20.89						
4308	34.31	-4.86	20.89						
4309	34.32	-4.85	20.89						
4310	34.28	-4.84	20.89						
4311	34.25	-4.84	20.89						
4312	34.22	-4.83	20.89						
4313	34.19	-4.82	20.89						
4314	34.18	-4.82	20.89						
4315	34.17	-4.81	20.88						
4316	34.18	-4.81	20.88						
4317	34.14	-4.8	20.88						
4318	34.11	-4.8	20.88						
4319	34.09	-4.79	20.88						
4320	34.05	-4.78	20.88						
4321	34.04	-4.78	20.88						
4322	34.02	-4.77	20.88						
4323	34.04	-4.76	20.88						
4324	34	-4.76	20.88						
4325	33.97	-4.75	20.88						
4326	33.96	-4.74	20.88						
4327	33.91	-4.73	20.88						
4328	33.91	-4.73	20.88						
4329	33.89	-4.72	20.88						
4330	33.9	-4.72	20.88						
4331	33.87	-4.71	20.88						
4332	33.84	-4.7	20.88						
4333	33.83	-4.7	20.88						
4334	33.78	-4.69	20.88						
4335	33.78	-4.68	20.88						
4336	33.75	-4.68	20.88						
4337	33.76	-4.67	20.88						
4338	33.75	-4.67	20.88						
4339	33.71	-4.66	20.88						
4340	33.7	-4.66	20.88						
4341	33.65	-4.65	20.88						
4342	33.64	-4.64	20.88						
4343	33.61	-4.64	20.88						
4344	33.63	-4.63	20.88						
4345	33.62	-4.63	20.88						
4346	33.58	-4.62	20.88						
4347	33.57	-4.61	20.88						
4348	33.52	-4.61	20.88						
4349	33.52	-4.6	20.88						
4350	33.48	-4.6	20.88						
4351	33.5	-4.59	20.88						
4352	33.5	-4.58	20.88						
4353	33.46	-4.58	20.88						
4354	33.45	-4.57	20.88						
4355	33.4	-4.57	20.88						
4356	33.4	-4.56	20.88						
4357	33.35	-4.55	20.88						
4358	33.36	-4.55	20.88						
4359	33.38	-4.54	20.88						
4360	33.33	-4.54	20.88						
4361	33.32	-4.53	20.88						
4362	33.28	-4.52	20.88						
4363	33.27	-4.52	20.88						
4364	33.23	-4.51	20.88						
4365	33.24	-4.51	20.88						
4366	33.25	-4.5	20.88						
4367	33.21	-4.5	20.88						
4368	33.2	-4.49	20.88						
4369	33.16	-4.49	20.88						
4370	33.14	-4.48	20.88						
4371	33.11	-4.47	20.88						
4372	33.1	-4.47	20.88						
4373	33.13	-4.47	20.88						
4374	33.09	-4.46	20.88						
4375	33.09	-4.46	20.88						
4376	33.04	-4.45	20.88						
4377	33.02	-4.44	20.88						
4378	33.01	-4.44	20.88						
4379	32.97	-4.43	20.88						
4380	33.01	-4.43	20.88						
4381	32.97	-4.43	20.88						
4382	32.97	-4.42	20.88						
4383	32.92	-4.42	20.88						
4384	32.9	-4.41	20.88						
4385	32.89	-4.41	20.88						
4386	32.85	-4.4	20.88						
4387	32.89	-4.4	20.88						
4388	32.86	-4.39	20.88						
4389	32.85	-4.39	20.88						
4390	32.81	-4.38	20.88						
4391	32.79	-4.38	20.88						
4392	32.79	-4.37	20.88						
4393	32.73	-4.37	20.88						
4394	32.76	-4.36	20.88						
4395	32.74	-4.36	20.88						
4396	32.73	-4.35	20.88						
4397	32.7	-4.35	20.88						
4398	32.67	-4.34	20.88						
4399	32.67	-4.34	20.88						
4400	32.61	-4.33	20.88						
4401	32.65	-4.33	20.88						
4402	32.63	-4.32	20.88						
4403	32.62	-4.32	20.88						
4404	32.6	-4.31	20.88						
4405	32.56	-4.3	20.88						
4406	32.56	-4.3	20.88						
4407	32.5	-4.29	20.88						
4408	32.53	-4.29	20.88						
4409	32.52	-4.29	20.88						
4410	32.5	-4.28	20.88						
4411	32.5	-4.27	20.88						
4412	32.44	-4.27	20.88						
4413	32.45	-4.27	20.88						
4414	32.4	-4.26	20.88						
4415	32.41	-4.26	20.88						
4416	32.41	-4.25	20.88						
4417	32.39	-4.25	20.88						
4418	32.39	-4.24	20.88						
4419	32.33	-4.24	20.88						
4420	32.33	-4.23	20.88						
4421	32.3	-4.23	20.88						
4422	32.29	-4.22	20.88						
4423	32.3	-4.22	20.88						
4424	32.29	-4.21	20.88						
4425	32.29	-4.21	20.88						
4426	32.23	-4.21	20.88						
4427	32.23	-4.2	20.88						
4428	32.2	-4.2	20.88						
4429	32.18	-4.19	20.88						
4430	32.2	-4.19	20.88						
4431	32.18	-4.19	20.88						
4432	32.18	-4.18	20.88						
4433	32.12	-4.18	20.88						
4434	32.13	-4.18	20.88						
4435	32.1	-4.17	20.88						
4436	32.07	-4.17	20.88						
4437	32.1	-4.16	20.88						
4438	32.08	-4.16	20.88						
4439	32.08	-4.16	20.88						
4440	32.02	-4.15	20.88						
4441	32.02	-4.15	20.88						
4442	32	-4.14	20.88						
4443	31.96	-4.14	20.88						
4444	31.99	-4.13	20.88						
4445	31.96	-4.13	20.88						
4446	31.97	-4.13	20.88						
4447	31.93	-4.12	20.88						
4448	31.91	-4.12	20.88						
4449	31.9	-4.11	20.88						
4450	31.86	-4.11	20.88						
4451	31.89	-4.11	20.88						
4452	31.86	-4.1	20.88						
4453	31.87	-4.1	20.88						
4454	31.84	-4.09	20.88						
4455	31.81	-4.09	20.88						
4456	31.8	-4.08	20.88						
4457	31.76	-4.08	20.88						
4458	31.78	-4.08	20.88						
4459	31.76	-4.07	20.88						
4460	31.77	-4.07	20.88						
4461	31.75	-4.06	20.88						
4462	31.71	-4.06	20.88						
4463	31.71	-4.06	20.88						
4464	31.67	-4.05	20.88						
4465	31.67	-4.05	20.88						
4466	31.66	-4.05	20.88						
4467	31.67	-4.05	20.88						
4468	31.66	-4.04	20.88						
4469	31.61	-4.04	20.88						
4470	31.62	-4.04	20.88						
4471	31.57	-4.03	20.88						
4472	31.57	-4.03	20.88						
4473	31.57	-4.02	20.88						
4474	31.58	-4.02	20.88						
4475	31.56	-4.02	20.88						
4476	31.52	-4.01	20.88						
4477	31.53	-4.01	20.88						
4478	31.47	-4.01	20.88						
4479	31.47	-4	20.88						
4480	31.47	-4	20.88						
4481	31.48	-4	20.88						
4482	31.47	-3.99	20.88						
4483	31.43	-3.99	20.88						
4484	31.43	-3.99	20.88						
4485	31.39	-3.98	20.88						
4486	31.38	-3.98	20.88						
4487	31.37	-3.97	20.88						
4488	31.38	-3.97	20.88						
4489	31.38	-3.96	20.88						
4490	31.34	-3.96	20.88						
4491	31.34	-3.96	20.88						
4492	31.29	-3.95	20.88						
4493	31.29	-3.95	20.88						
4494	31.28	-3.94	20.88						
4495	31.28	-3.94	20.88						
4496	31.3	-3.94	20.88						
4497	31.25	-3.93	20.88						
4498	31.25	-3.93	20.88						
4499	31.21	-3.93	20.88						
4500	31.2	-3.92	20.88						
4501	31.19	-3.92	20.88						
4502	31.19	-3.92	20.88						
4503	31.21	-3.92	20.88						
4504	31.16	-3.91	20.88						
4505	31.16	-3.91	20.88						
4506	31.12	-3.91	20.88						
4507	31.11	-3.9	20.88						
4508	31.1	-3.9	20.88						
4509	31.09	-3.9	20.88						
4510	31.12	-3.89	20.88						
4511	31.08	-3.89	20.88						
4512	31.06	-3.89	20.88						
4513	31.04	-3.88	20.88						
4514	31.02	-3.88	20.88						
4515	31.01	-3.88	20.88						
4516	31	-3.88	20.88						
4517	31.03	-3.87	20.88						
4518	31	-3.87	20.88						
4519	30.98	-3.87	20.88						
4520	30.96	-3.86	20.88						
4521	30.94	-3.86	20.88						
4522	30.93	-3.86	20.88						
4523	30.91	-3.86	20.88						
4524	30.94	-3.85	20.88						
4525	30.91	-3.85	20.88						
4526	30.9	-3.85	20.88						
4527	30.88	-3.84	20.88						
4528	30.85	-3.84	20.88						
4529	30.85	-3.84	20.88						
4530	30.83	-3.83	20.88						
4531	30.86	-3.83	20.88						
4532	30.83	-3.82	20.88						
4533	30.82	-3.82	20.88						
4534	30.8	-3.82	20.88						
4535	30.76	-3.81	20.88						
4536	30.77	-3.81	20.88						
4537	30.73	-3.81	20.88						
4538	30.77	-3.8	20.88						
4539	30.75	-3.8	20.88						
4540	30.73	-3.8	20.88						
4541	30.72	-3.79	20.88						
4542	30.68	-3.79	20.88						
4543	30.69	-3.79	20.88						
4544	30.65	-3.78	20.88						
4545	30.69	-3.78	20.88						
4546	30.68	-3.78	20.88						
4547	30.66	-3.77	20.88						
4548	30.65	-3.77	20.88						
4549	30.6	-3.76	20.88						
4550	30.61	-3.76	20.88						
4551	30.57	-3.76	20.88						
4552	30.6	-3.75	20.88						
4553	30.6	-3.75	20.88						
4554	30.58	-3.75	20.88						
4555	30.57	-3.74	20.88						
4556	30.53	-3.74	20.88						
4557	30.53	-3.74	20.88						
4558	30.49	-3.73	20.88						
4559	30.52	-3.73	20.88						
4560	30.52	-3.73	20.88						
4561	30.49	-3.73	20.88						
4562	30.5	-3.72	20.88						
4563	30.45	-3.72	20.88						
4564	30.46	-3.72	20.88						
4565	30.42	-3.71	20.88						
4566	30.43	-3.71	20.88						
4567	30.45	-3.71	20.88						
4568	30.42	-3.7	20.88						
4569	30.43	-3.7	20.88						
4570	30.37	-3.69	20.88						
4571	30.38	-3.69	20.88						
4572	30.35	-3.69	20.88						
4573	30.34	-3.69	20.88						
4574	30.37	-3.68	20.88						
4575	30.34	-3.68	20.88						
4576	30.36	-3.68	20.88						
4577	30.3	-3.67	20.88						
4578	30.3	-3.67	20.88						
4579	30.28	-3.67	20.88						
4580	30.26	-3.67	20.88						
4581	30.3	-3.66	20.88						
4582	30.27	-3.66	20.88						
4583	30.28	-3.66	20.88						
4584	30.23	-3.65	20.88						
4585	30.22	-3.65	20.88						
4586	30.21	-3.64	20.88						
4587	30.18	-3.64	20.88						
4588	30.22	-3.64	20.88						
4589	30.2	-3.63	20.88						
4590	30.21	-3.63	20.88						
4591	30.16	-3.63	20.88						
4592	30.15	-3.62	20.88						
4593	30.15	-3.62	20.88						
4594	30.1	-3.62	20.88						
4595	30.15	-3.61	20.88						
4596	30.12	-3.61	20.88						
4597	30.13	-3.61	20.88						
4598	30.09	-3.6	20.88						
4599	30.08	-3.6	20.88						
4600	30.09	-3.6	20.88						
4601	30.03	-3.59	20.88						
4602	30.07	-3.59	20.88						
4603	30.05	-3.59	20.88						
